Surface analysis

Generated: Tuesday 29 June 2021 10:56:03

						
Left filename	Left2_2m.jpg					
Left frame number	      0					
Plane definition points	156					
RMS plane fit (mm)	58.502					
X plane direction (unit vector)	[0.9979, -0.0000, 0.0655]					
Y plane direction (unit vector)	[-0.0020, 0.9995, 0.0301]					
Z plane direction (unit vector)	[-0.0655, -0.0302, 0.9974]					
Plane shift (mm)	[-1013.4652, -781.0390, -1975.4989]					
						
Transformed coordinates						
X (mm)	Y (mm)	Z (mm)				
25.156	1534.087	104.772				
0.000	24.005	116.552				
1871.792	0.000	0.000				
915.763	720.385	207.568				
635.016	723.219	281.131				
801.269	956.250	205.972				
1744.741	1056.773	168.327				
1275.931	1130.140	190.649				
706.236	1208.082	273.112				
994.114	386.146	230.045				
1402.161	435.589	120.961				
667.591	250.309	229.913				
1391.637	786.668	199.311				
1221.036	331.538	180.424				
1031.149	895.500	201.485				
1520.681	1397.742	191.971				
1184.545	1228.566	200.786				
574.803	1072.172	159.917				
1600.677	551.457	105.612				
964.050	1147.635	228.953				
1517.750	197.460	63.385				
220.962	975.779	105.120				
219.050	747.121	185.659				
86.345	939.419	120.866				
1097.762	172.103	213.440				
1124.985	638.008	227.333				
895.670	1417.863	154.206				
1168.583	744.867	149.672				
671.350	842.959	228.894				
1762.828	658.745	105.533				
157.978	1508.223	125.931				
271.811	1493.069	121.548				
940.977	990.798	225.191				
60.867	1434.736	121.859				
1328.985	350.653	135.415				
446.394	1424.252	123.886				
726.738	1121.740	190.212				
1155.294	823.371	178.879				
589.232	405.678	329.496				
1179.251	906.059	184.719				
1549.346	832.770	146.617				
1098.997	1378.642	194.550				
59.670	1348.042	118.641				
219.680	1081.074	119.836				
1577.327	1130.788	185.913				
824.091	1312.401	201.872				
1185.661	1318.149	196.355				
598.689	1174.490	176.559				
902.234	1279.573	210.520				
1317.399	1301.364	190.485				
1049.152	1123.881	189.869				
1538.475	1307.452	185.856				
126.670	1265.941	117.350				
95.252	1074.587	113.791				
1476.751	506.180	181.509				
798.158	1213.675	216.828				
1259.489	1205.864	220.107				
1559.283	1217.068	204.755				
1243.730	621.167	180.274				
84.256	1181.742	120.001				
1380.599	1194.049	201.964				
1507.916	105.130	88.735				
1470.379	1197.783	193.594				
1039.325	792.911	190.753				
515.623	1161.090	199.434				
166.286	1167.732	114.095				
341.664	1155.617	119.786				
91.788	377.649	88.749				
420.010	726.401	307.558				
1505.059	712.946	156.381				
735.466	1311.304	205.036				
1097.945	537.270	198.763				
819.622	1082.571	239.837				
1133.216	323.953	198.050				
1353.098	1397.665	194.514				
354.389	1402.628	116.490				
868.751	444.438	252.658				
1395.868	529.167	142.475				
480.319	649.562	293.714				
1083.840	1032.060	231.015				
1178.388	1058.986	183.587				
1271.171	996.973	223.756				
1420.660	1007.607	179.164				
1726.475	477.048	77.679				
1558.481	1006.165	178.189				
627.721	967.666	218.973				
422.804	848.158	155.780				
527.975	1470.007	121.980				
1514.762	917.086	192.958				
1175.892	428.891	185.045				
1681.499	921.004	134.213				
717.953	556.884	297.245				
590.493	888.021	210.213				
929.701	893.572	218.305				
1381.007	684.159	154.099				
280.557	1260.248	121.719				
346.164	840.047	170.247				
176.276	235.344	97.220				
803.299	828.264	232.459				
1300.031	230.931	134.035				
915.884	216.971	239.614				
1728.653	829.506	160.042				
930.961	804.803	222.007				
1011.612	1336.859	189.058				
1658.906	782.951	113.744				
1261.841	773.968	211.613				
964.687	1067.193	245.336				
830.262	732.407	283.120				
260.596	335.963	89.986				
729.590	711.064	208.814				
1020.429	708.739	226.632				
1015.388	254.119	221.701				
212.671	878.800	170.401				
301.274	666.214	177.757				
1629.548	680.595	131.602				
828.687	368.589	278.311				
1103.595	1297.168	201.504				
1220.784	509.641	181.442				
873.158	1173.429	267.900				
1483.013	614.415	138.789				
386.034	599.812	199.961				
961.685	596.513	241.068				
197.115	1406.401	121.659				
1394.546	909.067	180.536				
374.629	1058.617	144.939				
379.256	452.292	173.773				
1656.201	154.634	65.171				
1038.807	629.383	257.032				
1436.738	1291.610	235.564				
988.426	512.560	258.747				
712.588	985.557	195.809				
674.179	479.641	303.304				
748.066	483.604	308.267				
835.462	545.335	303.715				
1077.993	443.996	200.127				
1296.988	852.161	230.500				
1358.796	1109.696	213.841				
1155.628	1140.951	216.761				
1638.780	388.570	75.709				
666.696	404.652	289.248				
349.577	963.692	159.107				
1026.307	1249.874	193.903				
837.518	617.345	211.512				
1475.686	317.148	112.455				
259.365	1172.810	130.923				
916.731	316.376	301.591				
222.962	123.781	113.450				
773.574	267.104	228.686				
478.883	721.422	172.802				
285.519	564.778	187.329				
628.733	1406.809	149.544				
352.638	176.371	149.896				
1412.046	156.809	106.084				
1478.076	1082.836	219.430				
688.815	638.714	284.915				
349.842	91.557	146.916				
						
Triangle data						
X centre (mm)	Y centre (mm)	Z centre (mm)	Slope (deg)	Direction (deg)	Plan area (mm^2)	3D area (mm^2)
787.829	160.210	199.990	33.317	181.585	24103.704	28844.533
190.935	79.781	125.639	23.179	337.591	9922.139	10793.403
1243.183	65.562	78.550	32.888	174.873	63343.506	75432.486
740.545	38.521	87.822	35.973	175.814	67420.240	83307.694
985.173	122.930	149.697	55.441	177.346	41563.546	73271.656
456.690	172.745	175.575	13.993	263.785	13252.970	13658.251
644.439	186.279	205.481	19.842	193.807	25004.952	26583.211
308.481	130.569	136.754	15.200	264.460	5425.684	5622.366
601.383	670.498	286.587	4.987	31.860	8517.656	8550.017
693.649	558.413	295.155	8.286	327.483	2916.406	2947.169
614.438	589.305	293.978	6.905	23.345	16662.541	16784.266
751.975	655.708	235.080	42.974	39.808	5814.956	7947.589
748.096	604.314	264.558	32.736	57.644	5772.898	6862.913
684.474	690.999	258.287	45.551	55.394	3669.001	5239.425
1405.824	1128.860	211.745	8.262	354.340	5323.683	5379.512
1443.018	1158.223	204.996	13.771	19.956	5174.345	5327.474
1485.739	1032.202	192.261	28.208	179.844	5225.451	5929.655
1537.961	1073.263	194.511	22.536	107.093	5732.610	6206.546
1419.177	1066.713	204.145	24.205	198.527	5257.745	5764.547
1508.594	1137.136	199.646	18.087	42.804	5888.866	6194.988
1479.237	153.133	86.068	21.494	52.188	4679.943	5029.729
1339.241	144.681	136.086	25.868	47.506	7387.825	8210.517
1269.946	186.614	151.187	20.799	66.713	10791.051	11543.298
1468.494	223.806	93.975	28.732	115.512	7180.711	8188.921
1395.921	234.962	117.525	11.760	121.868	11338.774	11581.879
250.625	178.499	120.189	16.261	274.684	8461.168	8813.775
263.170	249.226	112.367	18.299	319.555	11358.871	11963.860
330.830	321.542	137.885	34.469	268.302	14822.074	17978.419
440.375	344.780	217.722	36.687	268.871	29588.777	36897.765
536.487	277.453	236.435	34.756	187.671	27363.907	33305.962
530.250	1330.717	157.621	15.727	335.634	23388.637	24298.288
581.015	1247.463	175.179	15.362	72.549	9447.643	9797.704
534.367	1433.689	131.803	15.422	334.948	4882.984	5065.381
684.126	1431.560	141.910	21.030	355.028	8991.912	9633.585
753.290	1378.659	169.595	28.287	355.771	13336.883	15145.470
654.296	1297.534	177.047	22.166	293.812	13832.782	14936.733
198.786	563.182	153.912	22.023	251.191	23881.855	25761.526
268.614	659.371	183.582	10.082	67.197	4807.563	4882.963
308.457	451.011	150.363	26.881	219.672	12125.938	13594.877
212.634	426.130	122.021	23.158	194.825	19832.365	21570.478
324.276	610.268	188.349	11.662	305.687	4821.984	4923.617
350.270	538.961	187.021	10.547	200.378	7295.307	7420.686
440.565	765.327	212.047	69.470	63.495	3591.028	10239.776
497.393	819.200	179.598	17.886	268.503	11743.858	12340.236
459.737	699.128	258.025	71.496	54.592	2111.736	6653.868
531.406	698.067	249.216	61.138	336.859	5611.178	11624.442
568.131	777.554	221.382	36.408	289.167	12905.544	16035.559
785.683	244.795	232.738	9.855	354.767	3851.681	3909.366
756.319	346.782	265.415	25.192	184.497	9213.620	10182.102
702.620	307.355	249.282	21.345	169.319	8186.419	8789.306
839.664	317.356	269.530	26.293	238.077	5906.400	6587.963
868.730	266.817	256.631	34.517	205.451	7094.369	8610.079
133.080	127.710	109.074	7.662	341.307	14766.300	14899.324
975.411	318.880	251.112	40.706	85.005	5850.440	7717.563
949.334	262.489	254.302	36.922	146.558	4929.820	6166.479
871.390	376.467	277.520	20.160	352.391	4384.986	4671.157
926.532	382.320	261.431	34.842	38.528	6628.709	8076.550
273.570	1136.500	123.515	10.926	148.466	4116.060	4192.047
215.110	1140.538	121.618	10.408	256.243	4168.570	4238.306
293.862	1196.225	124.142	9.362	65.267	3780.233	3831.260
235.403	1200.263	122.246	13.604	308.633	4015.499	4131.400
1368.234	299.577	127.302	8.707	107.790	9266.702	9374.735
1402.277	367.797	122.944	9.420	79.746	7456.016	7557.923
1451.533	419.639	138.309	30.647	232.259	7012.300	8150.744
1530.406	403.966	123.225	28.063	133.575	15377.013	17425.725
1544.072	301.059	83.850	24.374	129.253	11262.385	12364.441
861.181	690.046	234.067	44.594	125.440	4875.326	6846.372
904.989	644.748	220.050	15.788	313.401	7212.050	7494.809
878.222	586.398	252.099	52.029	358.967	4492.049	7301.057
799.123	686.939	234.482	41.694	222.183	5869.185	7860.066
796.978	573.188	270.824	52.009	3.160	4242.783	6892.786
1013.169	1173.797	204.242	25.519	83.507	5089.767	5640.013
1047.171	1294.634	194.822	7.133	286.447	3708.960	3737.889
964.197	1225.694	211.126	16.481	39.581	7267.003	7578.388
980.051	1288.769	197.827	9.861	61.991	5178.001	5255.651
1077.029	1171.569	200.178	14.147	252.542	6902.621	7118.502
1104.816	1258.536	198.731	5.189	216.005	4565.250	4584.037
1122.160	1206.464	203.817	10.713	354.500	7240.131	7368.567
433.003	1031.494	154.654	10.901	333.318	9331.004	9502.461
372.848	883.965	161.711	11.249	64.658	4724.183	4816.725
263.406	1006.848	128.021	24.561	251.497	6763.493	7436.320
314.629	1034.461	141.294	12.903	323.829	7635.632	7833.434
504.958	974.628	176.412	16.302	333.647	21588.839	22493.138
454.291	899.957	175.033	18.944	233.569	11146.417	11784.696
261.070	939.424	144.876	38.213	333.308	6286.558	8001.019
302.804	894.180	166.585	5.334	16.870	8318.999	8355.180
641.173	353.546	282.885	32.639	126.552	5977.546	7098.531
643.369	429.990	307.349	29.641	114.833	2908.277	3346.140
747.816	418.948	291.942	14.186	177.439	7861.979	8109.283
696.314	455.965	300.273	10.789	197.538	2755.532	2805.121
1655.311	472.358	86.334	11.403	139.242	8827.866	9005.631
1572.069	482.069	120.944	32.092	93.395	10955.616	12931.658
1604.244	246.888	68.089	3.121	210.257	15821.257	15844.752
1673.819	340.084	72.853	2.773	153.802	11028.154	11041.079
1139.285	1077.332	210.454	31.896	113.282	4181.261	4924.894
1096.206	1098.964	212.548	24.315	317.392	5184.428	5689.068
1203.316	1110.026	196.999	21.748	152.322	4807.336	5175.749
1230.349	1158.985	209.172	21.558	151.960	4466.064	4801.965
1199.887	1191.794	212.551	16.962	322.855	3611.316	3775.555
1338.442	1144.628	202.151	16.981	311.005	3717.860	3887.338
1350.209	1038.092	205.587	19.016	116.234	7959.481	8418.907
1301.966	1078.936	209.415	18.553	319.802	5566.101	5871.240
1238.041	816.500	206.997	19.663	256.139	5033.772	5345.481
1210.511	860.530	198.032	20.491	275.698	5513.324	5885.718
1249.137	918.397	212.992	21.848	266.457	7829.132	8434.987
1320.902	919.400	211.597	24.546	74.131	7798.324	8573.124
1361.057	849.299	203.449	24.318	71.525	5887.685	6460.957
1316.822	804.266	213.808	17.848	157.376	4851.346	5096.634
1054.788	497.942	219.212	30.202	100.665	4861.121	5624.640
1020.178	447.567	229.640	28.291	112.347	5466.288	6207.794
1117.277	470.053	194.645	8.663	96.687	4716.374	4770.804
1129.034	398.947	194.407	9.807	70.515	5458.932	5539.890
1068.441	384.698	209.407	16.762	68.289	6631.880	6926.163
767.161	528.607	303.076	7.948	342.503	4131.641	4171.714
817.427	491.126	288.213	27.347	140.047	5436.487	6120.533
897.547	500.778	271.707	25.796	155.599	7171.296	7965.008
928.525	551.470	267.844	26.055	48.104	5982.680	6659.486
713.400	506.709	302.938	8.021	328.505	2766.914	2794.249
815.168	432.210	279.745	26.277	80.563	5361.503	5979.383
581.243	511.627	308.838	13.635	32.414	14386.314	14803.542
670.553	932.061	214.559	16.117	55.654	5682.048	5914.507
728.402	928.255	210.225	13.739	351.860	6927.206	7131.244
752.982	1063.289	208.619	26.740	280.586	6601.759	7392.280
777.826	1008.126	213.873	17.144	218.943	5870.097	6143.038
638.371	1008.465	191.566	33.044	12.337	4907.887	5854.886
671.376	1059.823	181.979	12.919	286.197	9994.782	10254.343
950.431	447.715	247.150	13.295	161.135	7758.062	7971.724
1041.726	559.738	238.181	33.068	112.143	5774.645	6890.786
996.306	579.485	252.283	16.207	295.986	3676.781	3828.948
1429.239	1227.814	210.374	22.901	164.880	4274.656	4640.411
1378.246	1262.341	209.338	22.107	252.620	6095.155	6578.824
1481.864	1265.615	205.005	30.464	115.988	5039.292	5846.416
1436.839	1362.339	207.349	21.761	2.152	8889.764	9571.840
1498.631	1332.268	204.464	25.877	86.724	4733.851	5261.378
1369.078	1330.213	206.854	20.908	284.446	5920.298	6337.619
1087.246	601.554	227.709	28.561	135.237	4224.092	4809.361
1006.974	644.878	241.577	24.445	312.150	3362.074	3693.124
1061.407	658.710	236.999	28.479	33.491	3498.647	3980.298
1678.636	86.588	51.302	13.808	123.713	16801.233	17301.255
1560.622	152.408	72.430	15.434	14.629	6602.152	6849.139
1751.489	210.561	47.617	14.254	110.877	40188.230	41464.730
415.203	567.222	222.483	43.012	261.673	6785.802	9280.252
482.935	502.510	265.661	39.121	255.416	23066.498	29731.840
410.639	1125.108	154.720	25.285	282.547	8527.221	9430.704
488.352	1097.293	168.097	25.401	185.171	9300.569	10295.854
311.991	1098.436	128.187	14.120	328.652	7144.938	7367.545
1362.126	971.215	194.485	17.234	102.356	7226.442	7566.152
1433.648	870.940	190.935	10.932	323.919	7345.466	7481.224
1443.323	944.587	184.219	6.513	291.612	5818.347	5856.142
201.447	1310.864	120.242	1.900	240.892	11008.003	11014.060
274.438	1434.033	119.899	2.389	129.433	6956.173	6962.225
277.354	1356.426	119.956	2.210	59.749	11335.625	11344.059
208.968	1469.231	123.046	2.575	129.529	5498.763	5504.322
127.818	1340.128	119.217	1.572	204.408	7597.207	7600.067
105.884	1396.393	120.720	2.150	189.552	5922.903	5927.076
138.654	1449.787	123.150	2.615	189.943	6382.055	6388.710
965.959	675.212	225.089	14.814	323.157	6215.201	6428.888
369.106	664.143	228.425	45.039	229.959	6492.929	9188.669
428.788	658.592	267.078	42.938	223.112	5122.545	6997.190
1520.147	557.351	141.970	31.087	52.502	6564.833	7665.755
1451.877	549.921	154.258	28.938	318.765	4449.147	5083.897
1456.360	670.507	149.757	10.513	172.477	5794.163	5893.094
1419.963	609.247	145.121	7.071	121.523	7386.799	7443.418
1539.207	669.319	142.257	14.330	145.617	6489.592	6698.002
1571.079	615.489	125.334	15.789	146.598	8506.278	8839.787
830.313	1156.558	241.522	32.907	276.227	4484.522	5341.580
857.850	1222.226	231.749	35.743	331.739	4565.493	5625.019
913.148	1200.212	235.791	33.728	53.973	5198.810	6250.956
933.965	1129.419	247.396	27.911	66.937	3647.556	4127.719
885.822	1107.731	251.024	15.523	193.850	7001.847	7266.917
1147.905	561.640	202.513	17.316	166.493	6560.822	6872.302
1196.500	589.605	196.350	21.437	100.129	6814.724	7321.185
1317.310	431.961	145.939	17.245	106.206	10412.252	10902.383
1241.887	429.728	167.301	16.178	111.347	7937.319	8264.598
1164.873	491.934	188.417	7.833	102.605	5579.807	5632.357
1339.604	491.466	148.293	18.050	130.893	8253.453	8680.678
1286.794	553.325	168.064	12.923	99.063	9539.148	9787.047
1157.934	1281.294	199.548	4.008	45.823	3664.144	3673.128
1071.401	1337.556	195.037	7.327	308.281	3655.914	3686.012
1129.418	1331.320	197.470	5.510	24.715	3391.407	3407.152
1597.838	725.497	133.909	14.161	64.348	6845.981	7060.522
1683.761	707.430	116.960	13.611	62.169	7141.758	7348.132
1664.351	630.266	114.249	15.835	146.427	8921.149	9273.061
355.816	744.221	218.521	53.197	286.273	8969.191	14972.003
288.829	751.127	177.888	6.362	82.444	8962.574	9018.110
259.295	821.989	175.436	6.999	16.707	8665.587	8730.638
172.689	855.113	158.975	19.724	286.060	8123.969	8630.302
173.326	931.333	132.129	34.296	354.415	6376.763	7718.796
1082.122	250.058	211.064	9.930	68.825	7708.166	7825.399
1047.573	321.406	216.599	12.366	97.380	8521.051	8723.425
1009.678	214.398	224.919	9.573	69.797	5610.471	5689.702
996.905	768.818	213.130	25.694	42.837	4672.969	5185.728
955.718	744.642	218.735	13.457	235.503	4506.381	4633.606
1076.113	748.839	189.019	28.732	53.306	5893.871	6721.414
1104.666	697.205	201.212	34.469	33.614	7128.253	8646.293
678.652	759.080	239.613	39.146	76.027	5882.970	7585.633
734.746	794.095	223.389	10.135	194.994	8273.796	8404.941
787.717	757.245	241.464	40.615	290.679	5112.771	6735.281
176.220	316.319	91.985	3.732	7.607	10250.037	10271.821
892.328	752.532	237.565	41.926	111.009	3700.273	4973.415
854.840	788.491	245.862	31.444	17.981	5802.352	6801.105
992.630	1112.903	221.386	29.136	68.117	3415.300	3910.047
908.429	1046.854	236.788	14.149	194.650	5723.419	5902.485
996.501	1030.017	233.847	15.562	171.974	4967.840	5156.878
1032.559	1074.378	222.073	31.954	27.079	4861.018	5729.130
1195.240	780.735	180.055	34.792	228.526	3853.889	4692.838
1344.828	748.265	188.341	25.470	162.990	6585.106	7294.028
1295.526	693.098	181.995	21.086	128.644	9917.623	10629.366
1224.718	713.334	180.520	32.493	258.110	6861.448	8134.920
1716.796	757.067	126.440	29.386	224.915	6750.518	7747.311
1571.104	776.222	138.914	16.156	94.986	7667.131	7982.369
1629.917	845.575	131.525	15.852	130.313	8125.310	8446.508
1689.686	844.487	136.000	32.442	265.986	4288.455	5081.520
936.505	1344.765	184.595	22.135	357.655	7750.911	8367.623
1002.093	1377.788	179.271	14.433	321.719	5961.473	6155.755
887.987	842.213	224.257	5.684	64.418	5651.431	5679.355
963.937	864.625	213.932	9.689	75.050	4503.930	4569.107
1000.478	831.071	204.748	16.239	106.423	5509.876	5738.828
1718.298	935.761	154.194	28.537	270.215	6094.283	6937.098
1745.407	848.341	144.634	46.384	96.035	5257.015	7620.779
1206.276	244.857	175.967	24.058	106.183	12498.390	13687.415
1283.350	304.374	149.958	24.380	105.012	6185.246	6790.791
844.756	892.695	218.912	11.700	1.387	8155.105	8328.147
758.639	875.824	222.442	11.691	358.899	8428.910	8607.480
89.355	212.333	100.840	4.356	17.079	21470.284	21532.480
396.326	804.869	211.195	51.263	2.620	4654.333	7438.102
383.523	1274.655	145.881	17.217	303.448	20394.895	21351.685
379.281	1192.318	146.979	27.904	237.987	9267.911	10487.210
191.171	1231.307	117.721	3.110	213.593	7443.782	7454.764
1340.202	611.498	158.949	12.535	104.142	11106.504	11377.712
1425.901	727.925	169.930	24.613	169.178	6205.257	6825.427
967.275	926.623	214.994	10.774	118.318	4920.804	5009.097
890.649	946.873	216.489	7.739	245.434	6596.807	6657.444
632.286	818.066	240.079	23.424	1.367	5659.512	6167.814
597.672	975.953	196.367	35.963	287.159	4052.581	5006.914
629.855	899.549	219.360	13.058	269.610	4058.709	4166.443
1581.869	890.287	157.930	28.379	137.962	7097.067	8066.490
1584.914	948.085	168.453	19.421	91.169	7340.714	7783.587
1661.574	994.647	160.243	19.037	156.284	11043.922	11682.872
1176.715	361.461	187.839	11.406	77.446	4445.942	4535.515
1241.971	370.360	166.961	22.565	71.070	5686.090	6157.487
1485.248	845.508	179.629	29.909	129.822	7445.939	8590.003
1497.968	976.953	183.437	9.187	3.106	6169.974	6250.154
415.393	1462.443	122.471	2.205	2.645	6801.077	6806.118
1626.850	1064.575	177.476	5.885	135.083	11129.267	11188.230
1787.032	378.598	61.071	8.990	173.141	21872.706	22144.755
1696.660	562.417	96.275	11.984	146.400	12781.085	13065.848
1241.830	1062.033	199.331	20.134	314.711	6325.461	6737.173
1209.603	987.339	197.354	23.250	270.664	7067.805	7692.519
1147.160	999.035	199.773	26.511	88.826	7241.114	8091.998
1098.080	944.540	205.739	16.605	153.671	9834.259	10262.211
1018.655	972.786	219.230	12.788	173.825	8667.592	8888.060
1424.927	490.312	148.315	31.772	244.414	3712.077	4366.395
357.531	1439.983	120.641	6.843	207.470	5053.320	5089.573
438.802	1329.323	146.603	15.990	330.927	12854.601	13371.958
1115.922	1398.057	181.090	36.636	355.730	6916.881	8619.771
1285.386	1339.059	193.784	3.841	146.088	6642.812	6657.769
1212.585	1364.819	195.139	1.558	356.016	8510.015	8513.164
1150.671	275.865	197.305	11.511	74.152	6533.210	6667.305
853.956	1009.873	223.667	14.990	196.028	8507.006	8806.679
781.506	1139.329	215.626	26.718	280.829	5668.408	6345.991
680.131	1231.292	218.236	57.537	309.619	5059.625	9426.433
818.409	1347.189	187.038	23.385	4.027	4633.978	5048.690
746.620	1244.354	231.659	37.378	49.649	4662.464	5867.344
785.905	1279.127	207.912	8.338	13.391	4360.534	4407.116
1482.014	777.461	167.437	19.344	97.709	8427.840	8932.083
132.394	688.063	131.758	30.226	263.814	36751.423	42534.038
59.378	447.024	108.722	26.887	95.919	26744.523	29986.094
160.406	1107.797	115.907	3.518	304.909	5564.550	5575.056
115.265	1141.354	115.962	4.660	129.156	4317.982	4332.300
125.737	1205.138	117.148	4.083	93.534	3750.562	3760.103
563.039	1135.917	178.637	21.417	126.958	4089.547	4392.879
1121.068	787.050	173.101	21.302	150.570	4754.380	5103.022
1075.256	837.260	190.372	9.004	126.601	6073.129	6148.893
1522.712	1240.768	194.735	13.308	316.517	4218.425	4334.821
1535.663	1181.880	194.754	13.802	197.720	4009.307	4128.522
1305.340	1176.685	204.240	20.893	162.580	4488.370	4804.250
1319.162	1233.759	204.185	14.999	39.384	6125.138	6341.186
88.617	1065.249	118.219	33.208	89.193	1220.333	1458.536
76.757	1156.401	119.836	1.902	275.681	2805.160	2806.707
90.199	1265.242	118.664	2.189	69.381	4561.799	4565.131
1179.100	668.014	185.760	35.484	41.469	6711.599	8242.352
1614.167	1193.764	186.313	29.591	56.008	6713.526	7720.499
1627.117	1134.876	186.332	12.223	177.521	6554.510	6706.529
1209.898	1250.860	205.749	13.904	282.237	3369.469	3471.172
1254.183	1275.126	202.316	15.333	16.538	6776.488	7026.612
743.711	1181.166	226.717	46.131	140.538	4025.700	5808.990
841.495	1268.550	209.740	9.539	345.399	4283.052	4343.105
178.631	1043.813	112.916	8.318	196.396	6554.973	6624.660
134.186	996.595	113.259	6.511	66.535	8935.999	8994.010
1601.299	1253.989	182.051	3.840	176.989	7081.582	7097.515
873.999	1336.612	188.866	22.526	8.545	5295.491	5732.887
677.221	1168.104	213.295	50.796	207.002	4987.203	7890.076
633.410	1122.801	175.563	11.431	231.570	7180.820	7326.141
57.057	1273.849	114.760	29.926	266.806	4570.232	5273.335
48.564	1438.955	115.091	29.291	266.998	1607.479	1843.123
1121.898	874.976	188.361	9.113	131.177	5996.664	6073.321
81.334	1492.349	117.521	10.375	312.360	6136.232	6238.223
						
Total plan area (mm^2)	2431327.248					
Total 3D area (mm^2)	2715857.304					
						
Slope bitmap	Double click to view	Darkest: 0 degree slope	Brightest: 90 degree slope			
Slope direction bitmap	Double click to view	0 deg = red, 120 deg = green, 240 deg = blue				
Surface bitmap	Double click to view	Darkest: z = 0.000 (mm)	Lightest: z = 329.496 (mm)			
