Surface analysis

Generated: Friday 25 June 2021 14:25:23

						
Left filename	Left2_5m.jpg					
Left frame number	      0					
Plane definition points	63					
RMS plane fit (mm)	126.732					
X plane direction (unit vector)	[0.9841, -0.0000, 0.1774]					
Y plane direction (unit vector)	[-0.0313, 0.9843, 0.1736]					
Z plane direction (unit vector)	[-0.1746, -0.1764, 0.9687]					
Plane shift (mm)	[-1757.4808, -1219.9034, -2429.6282]					
						
Transformed coordinates						
X (mm)	Y (mm)	Z (mm)				
302.467	1651.228	1.973				
2323.875	198.335	117.390				
2270.102	1596.137	339.068				
1640.475	1375.525	323.808				
816.459	265.906	292.742				
1301.759	751.817	428.023				
2285.856	1185.355	171.981				
1374.282	963.058	307.333				
1436.566	1561.754	187.255				
1709.099	1553.069	321.767				
1998.382	763.690	45.077				
2117.218	453.999	73.520				
1042.755	1480.163	236.538				
661.947	1568.959	113.497				
1992.810	1203.595	144.213				
168.865	1699.178	19.987				
1897.937	1549.384	362.272				
132.097	1499.686	119.825				
198.967	1118.210	94.740				
1367.828	1440.587	282.986				
1215.766	1422.942	262.614				
1397.372	1131.870	319.053				
332.825	1399.219	100.846				
1518.567	1202.572	279.816				
160.403	756.511	202.255				
1531.565	1309.429	317.345				
2224.484	1059.357	165.438				
2083.373	349.746	145.693				
262.238	1250.933	37.703				
1979.195	422.687	118.679				
1438.702	1326.332	295.504				
1549.850	1424.264	296.932				
983.450	861.052	399.271				
2167.955	902.042	144.521				
136.118	562.981	194.610				
1174.198	1104.110	334.570				
1950.468	594.067	78.134				
1782.617	663.155	69.705				
258.816	1001.717	94.036				
1278.337	997.681	343.276				
1727.392	1211.113	337.483				
1155.433	927.404	399.780				
1016.801	993.254	360.284				
1131.443	756.990	414.884				
2069.492	202.030	186.923				
1816.527	1321.606	371.755				
2250.057	724.128	154.834				
1301.202	1141.392	348.869				
2159.072	1292.648	358.807				
1484.899	621.946	66.785				
2150.559	616.847	93.720				
1614.046	1088.140	338.030				
1060.770	1281.431	297.040				
1711.827	430.909	142.467				
1340.427	1242.606	321.114				
918.022	1416.605	251.250				
1598.399	322.878	159.288				
425.981	818.853	221.802				
1869.638	150.264	212.113				
0.000	1789.313	0.000				
177.824	70.897	477.695				
175.657	39.391	370.191				
2357.917	0.000	63.268				
						
Triangle data						
X centre (mm)	Y centre (mm)	Z centre (mm)	Slope (deg)	Direction (deg)	Plan area (mm^2)	3D area (mm^2)
1467.737	63.218	215.191	30.182	167.042	154341.049	178545.977
2099.016	117.431	154.102	20.693	146.633	27653.420	29560.485
2250.428	133.455	122.527	19.417	129.991	25163.666	26681.123
389.980	125.398	380.209	75.108	158.796	9849.116	38322.987
953.918	151.854	291.682	7.369	42.313	156332.109	157633.995
163.200	224.423	347.498	87.799	266.418	1190.125	30993.261
376.800	299.928	321.682	30.759	10.756	161197.780	187585.955
321.471	1669.833	38.490	55.758	204.769	12377.605	21997.225
157.111	1713.240	7.320	57.817	24.324	1972.522	3703.419
100.321	1662.726	46.604	26.308	15.899	18500.641	20638.280
97.500	1348.503	107.360	36.099	276.562	44986.626	55676.255
98.840	1036.268	132.288	40.054	274.480	28061.707	36660.847
1428.166	246.349	221.381	28.020	14.488	75213.210	85199.768
1726.621	301.350	171.289	12.593	345.127	24440.650	25043.149
1853.553	334.620	157.753	17.691	17.950	36869.010	38699.145
1972.775	258.327	172.572	18.206	7.254	24386.768	25671.983
808.744	891.053	327.119	27.324	317.763	36145.538	40684.864
315.678	1023.835	117.847	29.256	294.583	21142.934	24234.081
741.963	648.604	304.605	17.984	253.606	162364.441	170704.543
786.935	1076.237	277.779	19.133	303.165	133675.728	141491.725
535.414	1162.131	170.252	25.750	304.937	155239.443	172354.706
281.733	859.027	172.698	29.050	339.378	29493.072	33737.298
459.520	549.247	236.384	7.584	286.682	130095.697	131243.909
240.834	712.782	206.222	4.189	244.799	24941.762	25008.583
1299.919	403.576	172.938	21.381	21.604	120159.689	129040.646
1598.375	458.577	122.847	16.131	338.192	23092.027	24038.473
504.361	1355.586	129.933	21.565	218.841	42774.389	45993.903
998.531	1230.430	302.858	14.276	337.176	23540.165	24290.218
637.598	1461.594	155.198	27.688	328.985	46804.832	52857.405
874.241	1488.576	200.428	31.876	342.728	17639.631	20772.308
1007.182	1392.733	261.609	16.873	353.272	12966.737	13550.064
1346.334	1171.956	329.679	19.647	65.442	5053.625	5366.041
1432.565	1257.170	298.811	13.459	83.590	9424.617	9690.770
1418.788	1192.349	306.661	15.717	66.156	8723.369	9062.201
1308.007	1368.712	288.905	14.948	323.484	14810.913	15329.680
1382.319	1336.508	299.868	11.776	31.663	8581.223	8765.701
1191.799	1209.382	317.574	10.357	340.094	22592.627	22966.845
1271.942	1162.702	334.851	22.765	328.723	5696.136	6177.372
1205.654	1315.660	293.589	16.515	351.191	22796.129	23777.053
1659.781	572.003	92.986	18.513	350.457	33113.355	34920.462
1814.971	562.710	96.769	16.712	13.474	21936.711	22904.091
1880.497	482.554	113.093	15.145	20.942	22792.745	23612.920
1083.923	1126.265	330.631	12.308	2.591	20242.065	20718.244
1106.431	1394.845	265.397	16.918	350.237	16676.006	17430.376
1491.076	891.048	237.383	33.854	162.192	47811.295	57571.877
1627.188	791.080	158.173	31.244	173.037	66736.271	78057.408
1509.995	1140.861	312.300	27.663	1.984	10309.534	11640.045
1461.900	1061.023	321.472	6.480	240.512	18793.519	18914.349
1620.002	1167.275	318.443	21.483	313.144	12355.893	13278.360
1779.940	1020.981	240.197	30.236	132.345	42019.080	48635.700
1798.349	838.328	150.937	31.085	145.135	54322.062	63430.815
2172.611	598.325	107.358	31.658	270.205	6312.967	7416.595
2072.748	554.971	81.792	7.322	210.539	15912.427	16043.260
2133.000	701.555	97.877	25.682	252.554	15468.183	17163.804
2033.137	658.201	72.310	13.864	335.230	16424.277	16917.109
1306.034	710.251	303.231	71.703	183.201	10585.933	33720.017
1144.267	548.280	258.137	45.154	134.695	108056.608	153226.272
1386.980	778.940	267.380	62.414	92.549	24052.694	51941.363
2016.607	1348.542	288.430	50.071	224.059	32970.175	51368.094
2109.037	1479.390	353.382	4.118	52.065	53878.579	54018.052
2238.344	1358.047	289.952	50.707	107.230	25195.104	39785.046
2223.137	1179.120	232.075	48.984	118.297	11279.624	17187.625
2125.456	1185.200	222.819	51.791	215.416	22306.308	36062.982
1325.637	1090.314	337.066	17.417	106.078	7019.138	7356.404
1251.246	1081.061	342.238	6.186	258.270	8699.652	8750.603
2138.798	796.620	114.810	25.902	251.450	20764.229	23083.131
2253.466	989.613	164.084	2.850	226.331	11897.852	11912.592
2286.596	702.606	148.068	9.298	107.522	26434.897	26786.872
2230.383	458.821	115.248	20.983	251.412	44893.266	48081.786
2214.165	895.176	154.931	13.376	258.015	11486.519	11806.826
1902.425	1358.195	292.747	48.155	107.655	24880.269	37294.873
1845.577	1245.438	284.484	48.356	141.289	14998.444	22571.226
1807.854	1474.686	351.931	13.634	298.970	21656.580	22284.499
1722.034	1416.733	339.110	14.685	293.477	17478.643	18068.883
1728.132	1302.748	344.348	16.876	256.164	12129.301	12675.168
2044.020	324.821	150.432	16.224	348.112	8200.657	8540.800
2158.914	250.037	150.002	20.567	47.585	18813.923	20094.735
977.118	627.982	368.965	12.954	237.149	52727.539	54104.457
1196.212	812.070	414.229	7.054	323.191	14574.110	14685.256
1090.109	848.482	404.645	5.826	337.352	13858.272	13930.218
1115.477	1008.256	364.878	21.513	344.650	12866.423	13829.903
1051.895	927.236	386.445	19.399	338.454	10261.790	10879.433
1245.176	892.301	390.360	23.975	34.061	15931.875	17436.266
1202.656	1009.732	359.208	23.349	37.838	10199.571	11109.298
1906.195	1059.466	175.591	37.006	106.670	58358.359	73078.580
1592.508	1241.038	311.548	22.472	219.496	11101.766	12014.076
1633.144	1298.689	326.212	5.253	295.254	11825.448	11875.313
1349.997	1030.870	323.221	19.413	109.044	8498.075	9010.348
1318.126	904.185	359.544	33.016	52.683	11389.233	13582.493
240.007	1123.620	75.493	26.193	63.433	7657.043	8533.290
206.062	958.813	130.344	28.674	63.370	13069.969	14896.825
1910.489	673.637	64.305	10.715	8.164	15890.743	16172.710
2015.627	490.251	90.111	21.058	43.184	12276.892	13155.445
2053.049	956.442	111.270	24.715	239.961	37683.492	41483.541
2128.417	1054.998	151.391	9.330	240.160	22299.608	22598.593
1506.706	1353.341	303.260	16.035	316.694	5486.476	5708.575
1452.127	1397.061	291.807	5.513	312.884	9820.064	9865.703
1451.415	1475.535	255.724	38.422	359.604	11588.593	14791.583
1565.172	1513.029	268.651	32.064	309.872	18243.392	21527.253
1633.141	1450.953	314.169	14.687	293.476	9717.254	10045.482
1573.963	1369.739	312.695	15.529	318.227	5649.003	5863.028
1496.278	1279.444	297.555	23.287	222.838	5071.406	5521.190
2059.929	408.811	112.631	33.376	16.187	6664.775	7981.033
242.387	1383.279	86.125	21.411	194.136	18428.243	19794.294
197.767	1289.610	84.089	37.342	84.928	16505.808	20761.167
2174.822	334.027	112.201	35.430	40.240	15098.760	18530.106
163.822	1124.802	138.940	52.380	82.919	19448.924	31861.295
432.413	1539.802	72.105	23.253	328.158	44047.466	47941.755
255.796	1516.711	74.215	27.904	35.776	23767.635	26894.498
1231.696	1488.287	228.802	27.166	2.110	18325.175	20597.375
1340.054	1475.095	244.285	43.773	345.397	8606.000	11918.216
201.143	1616.697	47.262	28.137	33.471	14207.888	16111.975
1959.046	1566.197	341.036	62.434	354.690	5100.257	11021.088
1047.090	1536.959	179.097	45.610	355.185	33019.800	47202.051
						
Total plan area (mm^2)	3468462.648					
Total 3D area (mm^2)	4025339.219					
						
Slope bitmap	Double click to view	Darkest: 0 degree slope	Brightest: 90 degree slope			
Slope direction bitmap	Double click to view	0 deg = red, 120 deg = green, 240 deg = blue				
Surface bitmap	Double click to view	Darkest: z = 0.000 (mm)	Lightest: z = 477.695 (mm)			
