Surface analysis

Generated: Monday 28 June 2021 14:25:07

						
Left filename	Left3_5m.jpg					
Left frame number	      0					
Plane definition points	144					
RMS plane fit (mm)	107.450					
X plane direction (unit vector)	[0.9884, -0.0000, 0.1522]					
Y plane direction (unit vector)	[-0.0117, 0.9971, 0.0757]					
Z plane direction (unit vector)	[-0.1517, -0.0766, 0.9854]					
Plane shift (mm)	[-1392.7534, -1045.4033, -2065.4724]					
						
Transformed coordinates						
X (mm)	Y (mm)	Z (mm)				
0.000	0.000	2.081				
45.934	1710.255	224.510				
1825.174	268.164	120.057				
1219.807	1402.620	165.871				
1601.451	1509.986	53.662				
624.879	1285.939	251.764				
1097.129	756.500	333.398				
1638.755	1052.473	233.412				
1546.971	444.883	188.160				
966.746	1247.840	239.903				
776.512	980.264	345.594				
374.248	1126.383	175.180				
305.268	1536.926	261.989				
283.758	1694.070	238.060				
176.986	1573.361	238.842				
1724.684	1389.168	90.274				
1254.934	1571.423	154.215				
802.075	1538.520	507.224				
1313.304	702.067	324.957				
1337.611	1239.702	194.734				
564.927	540.961	29.717				
971.810	524.487	295.178				
1435.378	1659.858	96.793				
343.455	669.896	265.841				
919.903	1511.956	123.759				
922.787	1106.657	439.190				
300.834	882.194	204.094				
1249.712	1041.455	301.105				
702.274	1099.409	332.501				
1166.357	1677.898	143.405				
675.699	1537.392	492.631				
765.740	485.831	183.381				
498.835	735.152	104.414				
1324.374	253.682	177.315				
1442.862	872.531	319.492				
938.632	943.423	335.013				
1439.671	1433.889	141.077				
728.284	715.946	268.378				
741.379	1418.309	34.311				
1084.033	1537.035	481.060				
1347.041	1620.462	116.518				
1575.387	677.294	264.971				
1494.191	1557.354	117.411				
684.747	1196.875	255.694				
1340.470	1521.583	132.441				
1135.510	1506.600	135.071				
797.231	1429.239	456.726				
1542.688	274.797	181.841				
500.956	1425.714	229.249				
1232.952	726.636	346.642				
516.386	1337.332	214.448				
1465.814	649.065	320.786				
1021.896	720.075	359.905				
402.034	1371.052	204.335				
1322.089	1409.706	155.894				
828.196	396.093	253.425				
1308.419	1323.008	181.191				
1474.936	1315.814	151.175				
165.547	218.926	65.233				
1046.927	1261.241	216.741				
1337.687	1049.232	264.124				
1184.335	1240.376	227.378				
69.888	1136.586	0.000				
1427.781	412.261	213.188				
1123.756	840.062	331.023				
1443.389	1213.999	199.338				
545.246	1198.349	229.707				
683.031	1450.157	475.380				
1748.882	367.582	116.359				
1319.361	961.528	331.245				
292.949	1126.059	233.618				
1135.272	1326.940	194.154				
1352.007	1144.376	227.968				
1611.632	1246.339	169.762				
210.787	564.484	244.867				
1786.532	845.646	46.731				
298.282	492.147	216.922				
543.422	1070.465	255.124				
1442.709	1073.135	234.779				
1200.812	1148.746	258.597				
875.784	642.000	331.151				
438.495	838.931	166.812				
1084.568	1040.862	433.677				
1590.610	1402.032	101.619				
1159.008	1012.365	345.220				
862.145	1008.169	346.310				
1390.923	781.903	324.973				
627.835	966.129	307.138				
437.756	1533.942	209.859				
225.566	938.303	281.644				
1115.263	933.661	347.320				
1240.624	918.613	359.443				
1581.060	916.272	265.398				
958.379	1365.285	242.210				
235.522	800.518	263.156				
508.608	266.398	60.254				
1351.277	883.730	344.696				
1120.630	1416.492	163.119				
1008.260	1469.083	139.922				
906.664	861.779	354.280				
378.716	1230.051	239.881				
1424.595	291.618	191.319				
1547.999	1117.335	201.398				
1191.552	496.685	358.001				
1628.904	785.708	280.523				
1413.483	965.412	270.204				
418.455	635.790	165.497				
802.915	1148.736	280.786				
844.976	282.673	227.755				
408.966	500.107	177.072				
1035.318	903.154	360.260				
1490.162	990.132	289.090				
1094.352	1161.461	257.025				
1551.768	595.540	294.150				
1082.648	608.933	338.804				
1664.780	637.801	308.886				
877.140	514.343	300.403				
825.485	886.578	345.189				
966.059	1020.366	353.185				
1703.066	1278.585	143.002				
1195.642	582.989	380.875				
1429.467	537.319	288.248				
333.534	197.236	20.893				
884.030	1283.239	228.285				
430.480	739.110	168.524				
1337.151	458.670	236.564				
555.207	367.627	71.297				
1056.910	525.874	358.426				
1485.763	748.972	302.151				
1745.883	1183.980	67.872				
1192.998	414.859	360.623				
1009.180	1120.488	413.075				
978.329	381.496	334.750				
1082.412	388.447	349.863				
722.672	893.184	349.251				
692.075	810.936	335.294				
1717.343	292.061	162.553				
310.306	1038.789	239.824				
872.138	734.238	347.083				
771.412	1235.880	238.138				
1196.280	328.900	348.543				
448.164	137.036	70.541				
1282.500	613.123	296.874				
177.310	109.992	118.537				
						
Triangle data						
X centre (mm)	Y centre (mm)	Z centre (mm)	Slope (deg)	Direction (deg)	Plan area (mm^2)	3D area (mm^2)
208.492	82.343	63.720	58.587	168.116	12498.263	23979.718
319.670	148.088	69.990	44.413	4.666	9702.795	13583.482
114.286	109.639	61.950	44.473	293.542	10304.488	14440.473
225.464	175.385	68.221	31.847	32.282	9022.158	10621.053
1392.594	599.836	301.970	15.483	196.431	9589.118	9950.212
1353.873	654.752	314.206	16.670	194.215	7598.722	7932.089
1237.032	640.916	341.464	44.190	90.834	5676.321	7916.431
1276.252	680.609	322.824	21.893	157.044	3951.832	4258.971
1349.706	536.371	273.895	25.863	201.107	9278.350	10311.104
1270.401	522.826	297.146	39.126	97.421	10205.379	13155.337
1223.231	564.266	345.250	48.296	106.359	3686.430	5541.125
430.102	200.224	50.562	21.170	305.765	9233.796	9902.064
600.583	228.703	119.516	31.160	301.887	21264.853	24850.103
872.505	224.464	158.537	49.562	178.326	40660.947	62687.590
590.846	130.239	83.312	11.533	208.715	33897.882	34596.374
1157.230	377.402	353.010	8.882	203.838	4796.282	4854.493
1121.877	288.418	251.204	66.846	180.886	16172.813	41130.257
1085.674	366.281	344.386	16.427	205.611	3494.649	3643.376
1006.528	331.023	303.683	38.349	198.027	14276.167	18203.809
1242.143	400.810	315.243	41.964	96.797	6267.591	8429.125
1285.935	347.084	254.141	49.761	107.696	13609.427	21068.117
693.679	1239.565	248.532	11.149	45.380	5026.965	5123.654
712.557	1313.376	174.738	52.458	22.739	12614.312	20701.332
819.453	1222.618	249.070	24.881	347.206	5652.980	6231.343
753.025	1193.830	258.206	25.833	358.200	4390.568	4878.042
817.558	1316.119	307.716	53.453	153.765	10276.455	17257.204
770.008	1361.143	243.058	82.445	269.059	5258.596	39996.818
933.566	772.031	353.756	5.394	249.921	9794.637	9838.204
923.273	698.771	346.046	11.545	210.067	6880.931	7023.012
808.636	778.921	320.217	28.759	254.215	11383.999	12985.833
868.096	827.532	348.851	6.942	258.577	5604.932	5646.329
825.402	697.395	315.537	29.125	249.691	6667.777	7632.888
349.878	919.971	203.576	17.196	140.846	10983.368	11497.319
278.902	953.095	241.854	40.983	108.659	6159.093	8158.796
276.273	1034.384	251.695	19.713	67.528	4569.710	4854.205
325.834	1097.077	216.207	36.838	73.410	3550.311	4436.047
409.325	1078.546	223.376	41.722	348.079	9197.066	12322.259
430.741	982.728	220.586	20.558	182.248	25325.387	27047.908
1763.800	309.269	132.989	32.391	49.831	4448.604	5268.300
1695.068	278.341	154.817	42.209	167.395	3017.604	4073.980
1671.065	368.175	155.690	32.884	51.857	8843.247	10530.562
1602.334	337.247	177.518	6.910	109.285	14816.229	14924.648
680.861	890.083	330.561	24.073	269.551	5016.066	5493.909
639.731	754.011	236.028	52.155	218.376	10549.897	17195.623
746.744	863.566	343.245	10.329	171.182	4329.169	4400.478
748.615	804.487	316.287	33.393	156.064	7705.765	9229.375
543.135	795.006	202.173	52.703	216.501	12313.461	20321.007
586.135	871.998	269.748	34.307	261.735	18777.722	22732.467
774.890	920.009	346.678	2.518	67.403	4654.318	4658.816
709.006	946.526	333.994	19.391	307.552	6092.845	6459.257
1039.217	431.939	347.680	9.362	237.673	7240.563	7338.302
1110.291	470.336	355.430	3.731	189.521	8879.550	8898.409
1155.654	433.330	356.162	6.208	286.114	4543.490	4570.295
883.834	353.421	271.977	33.063	241.469	8391.580	10013.021
942.427	473.442	310.110	15.593	5.225	6801.590	7061.472
894.555	430.644	296.193	30.206	253.393	9233.808	10684.519
1002.350	477.286	329.451	38.153	287.994	6088.787	7742.999
966.009	1082.503	401.817	41.717	151.344	4026.712	5394.543
1019.936	1060.572	399.979	35.158	242.038	5490.723	6715.899
966.238	1158.328	364.056	54.246	3.315	5794.638	9917.055
1007.618	1209.856	289.906	54.081	2.423	5389.899	9187.659
1050.153	1181.063	295.614	59.375	52.112	5220.802	10248.458
1062.700	1107.604	367.926	60.992	40.586	4935.341	10177.421
1240.567	456.738	318.396	40.285	86.822	5929.451	7772.939
1724.545	1283.911	100.383	63.009	87.272	3389.966	7469.362
1665.423	1160.930	157.016	47.200	64.512	12167.654	17908.330
1686.860	1236.301	126.879	37.041	139.121	5015.445	6283.415
1723.723	1027.366	116.005	54.799	85.657	20795.263	36075.361
1447.500	726.647	315.970	17.412	65.610	5066.039	5309.311
1508.988	691.777	295.969	26.313	79.582	5192.001	5792.134
1503.228	845.925	295.680	21.441	90.584	9476.037	10180.576
1565.242	816.984	282.690	10.859	35.331	10223.334	10409.724
1439.849	801.136	315.539	12.821	106.487	5152.751	5284.502
1563.351	737.325	282.548	18.241	139.244	6776.305	7134.863
1037.123	553.098	330.803	41.517	301.985	3516.285	4696.167
1111.733	572.599	359.368	23.877	317.866	5026.475	5496.913
1148.035	535.183	365.768	15.000	191.573	5869.695	6076.748
716.381	416.517	169.368	37.148	292.900	13137.666	16482.269
628.625	464.806	94.799	36.610	292.017	17671.805	22014.993
509.700	469.565	92.695	42.459	78.035	13318.083	18051.974
490.927	378.044	102.874	28.366	125.294	10488.607	11919.801
742.793	348.798	184.159	35.376	243.204	15720.094	19279.627
636.263	305.566	119.769	27.415	283.704	16645.854	18751.744
1363.102	374.871	209.022	17.446	160.188	9585.510	10047.731
1398.133	469.417	246.000	31.029	184.681	5706.128	6658.978
336.486	736.508	232.507	41.212	49.396	9418.966	12520.575
322.279	807.274	211.925	32.186	64.840	9967.029	11776.843
397.464	681.599	199.954	51.788	97.952	4079.530	6595.088
449.257	703.351	146.145	43.230	98.413	3554.985	4879.160
389.937	820.078	179.810	15.081	90.951	7044.055	7295.304
455.937	771.064	146.583	43.117	93.544	3427.475	4695.447
869.911	1179.544	316.087	54.151	315.068	9768.229	16679.215
924.521	1212.579	302.459	53.426	17.672	6617.124	11105.048
879.880	1359.254	309.074	53.956	137.433	8988.196	15275.337
936.385	1298.788	236.799	8.898	258.737	4709.222	4766.585
265.788	302.770	101.016	33.745	164.287	24388.231	29329.673
346.927	396.497	138.295	36.397	146.734	16461.219	20450.519
417.036	321.247	86.073	27.038	182.630	23903.872	26837.088
1482.350	593.975	301.062	18.934	161.840	5775.231	6105.587
1509.402	525.914	256.853	37.594	157.787	9073.084	11450.733
1468.073	464.821	229.865	35.465	148.175	7425.349	9116.742
1170.414	639.519	355.440	23.541	316.528	8599.705	9380.398
1672.787	1356.595	111.632	25.154	15.814	7552.247	8343.448
1635.103	1308.985	138.128	25.373	16.164	7456.855	8252.931
980.003	955.648	349.486	18.619	248.295	4271.897	4507.832
1028.648	988.128	382.374	34.915	243.692	7655.079	9335.463
916.997	1045.064	379.562	44.240	177.175	4747.290	6626.329
922.278	990.653	344.836	12.706	190.250	3830.467	3926.631
890.260	897.260	344.827	14.169	351.887	3710.308	3826.727
875.420	946.057	342.170	6.809	111.017	5836.856	5878.312
821.380	958.337	345.698	0.545	218.631	4694.644	4694.856
823.692	465.422	245.736	46.723	272.264	5888.748	8590.132
908.245	560.277	308.910	14.213	161.370	6049.557	6240.572
839.555	547.391	271.645	45.502	255.701	7129.815	10172.522
1587.840	559.408	263.732	35.770	169.257	8411.715	10367.269
1653.544	483.422	204.468	34.592	172.163	24029.526	29189.984
1597.312	636.878	289.336	28.021	326.229	4120.523	4667.675
1623.024	700.268	284.793	24.822	280.126	5902.522	6503.336
1693.405	756.385	212.047	54.197	68.640	12732.369	21764.941
1733.398	617.010	157.325	65.562	90.720	25189.889	60887.152
1137.576	697.357	339.615	5.629	297.315	10237.745	10287.345
1067.224	695.170	344.036	19.356	89.648	5287.190	5603.949
1025.452	617.832	331.296	18.553	211.578	8724.415	9202.691
1530.990	640.633	293.302	26.782	63.323	4145.634	4643.782
1108.538	1221.026	233.715	21.597	357.486	6360.547	6840.782
1159.833	1183.528	247.667	19.111	4.385	4772.712	5051.084
1126.577	1117.023	316.433	55.602	6.235	6481.677	11473.209
1558.972	1053.313	241.300	33.024	9.352	7648.016	9121.683
1569.992	986.292	262.633	19.208	74.591	8320.875	8811.381
1493.623	1060.201	241.756	34.008	2.902	5418.426	6536.438
1448.784	1009.559	264.691	30.138	318.318	3768.820	4357.948
1448.835	942.691	292.929	29.197	317.328	3924.111	4495.222
1504.694	926.312	291.327	20.465	71.918	7091.608	7569.363
1091.445	892.293	346.201	15.064	124.928	3870.935	4008.685
987.960	828.336	358.148	2.691	271.834	11499.233	11511.924
1085.401	833.239	341.560	16.313	102.365	4534.986	4725.224
1051.448	793.243	351.188	20.174	94.494	6642.339	7076.466
1078.383	959.226	380.419	38.821	148.280	4753.309	6100.940
960.205	902.785	349.851	17.888	334.291	4590.595	4823.780
464.116	558.953	124.095	43.225	88.806	10386.783	14254.496
375.234	542.682	186.497	19.839	80.357	7471.179	7942.556
729.979	1148.340	289.660	39.269	8.247	5336.828	6893.459
813.857	1045.723	324.230	23.291	340.893	6844.980	7452.278
760.567	1076.136	319.627	25.753	46.925	7826.381	8689.439
862.616	1087.854	355.428	53.733	265.522	7178.808	12135.479
353.398	599.278	216.087	50.637	116.899	7435.866	11724.215
494.072	637.301	99.876	41.156	95.824	11088.027	14726.779
1356.843	992.057	288.524	41.647	44.409	4091.823	5475.803
1397.959	1029.259	256.369	19.127	38.953	5307.367	5617.480
1402.541	907.224	311.464	36.260	28.835	4088.698	5070.701
1361.373	936.890	315.382	37.390	55.614	3723.220	4686.114
1665.499	849.209	197.550	54.256	65.385	11724.158	20069.889
1599.462	1138.716	201.524	18.603	337.054	7917.655	8354.140
1478.032	1134.823	211.838	18.166	40.214	7400.747	7788.979
1534.340	1192.558	190.166	12.710	39.064	9822.970	10069.711
1465.021	326.225	195.450	10.790	163.468	7150.308	7279.005
1430.552	273.366	183.492	22.916	177.274	3082.951	3347.106
1392.250	319.187	193.941	10.936	201.824	5984.984	6095.684
432.378	1312.812	219.555	14.288	356.973	8455.025	8724.915
480.116	1255.244	228.012	8.724	33.800	11114.896	11245.002
247.184	1164.232	157.833	51.844	307.422	12049.697	19504.159
283.546	1245.897	148.072	44.517	294.042	20682.878	29006.601
348.638	1160.831	216.226	44.261	132.247	4213.359	5883.214
432.737	1184.928	214.923	31.975	185.262	8702.740	10259.341
962.180	1448.775	168.630	42.073	15.380	5654.909	7618.230
1004.065	1506.025	248.247	74.299	208.535	4626.326	17095.796
1070.974	1474.204	261.367	74.342	208.084	5810.393	21527.794
1029.090	1416.954	181.750	42.290	13.219	7143.560	9656.691
1158.570	1382.017	174.381	19.324	3.468	4339.217	4598.285
1158.649	1441.904	154.687	17.177	2.862	4571.478	4784.894
1113.391	1486.709	259.750	81.027	96.597	2545.659	16321.409
1071.427	1369.572	199.828	28.450	41.572	7639.908	8689.269
1274.951	842.993	350.260	7.503	122.678	10755.220	10848.102
1325.051	797.423	338.770	12.329	124.392	9138.421	9354.156
1303.754	921.291	345.128	18.720	39.528	3747.612	3956.934
1395.021	846.055	329.720	15.604	108.988	4440.903	4610.831
263.255	678.299	257.955	7.097	237.746	14353.482	14464.317
253.974	873.672	249.631	44.575	93.674	4906.141	6887.421
176.992	958.469	181.600	65.558	262.380	9737.932	23534.526
172.065	833.863	169.341	55.254	272.919	23704.030	41590.440
891.837	1435.493	274.232	66.045	54.993	10587.535	26076.688
990.684	1291.455	232.951	16.105	89.815	4764.490	4959.104
1046.859	1317.822	217.702	15.033	93.557	7504.667	7770.607
1668.782	938.130	181.847	45.484	100.682	16030.139	22864.030
1199.111	828.437	345.703	11.974	253.978	10916.733	11159.526
1216.448	990.811	335.256	29.466	37.274	5438.920	6246.984
1269.899	973.866	330.598	25.574	12.485	4641.028	5145.109
1171.632	954.880	350.661	6.595	310.702	5262.352	5297.408
1159.881	897.446	345.929	12.398	212.742	5802.949	5941.513
1119.613	995.630	375.406	48.186	117.871	3552.677	5328.672
196.134	1066.983	171.754	50.019	301.390	21295.166	33142.374
538.137	1499.016	310.580	52.144	246.624	12985.098	21159.549
342.261	1588.313	236.636	24.162	62.554	10377.785	11374.242
465.738	1588.468	313.517	60.246	221.957	19316.246	38921.768
446.915	1443.569	214.481	14.916	275.225	7080.367	7327.249
381.686	1480.640	225.394	22.228	107.019	10843.812	11714.384
624.511	1045.334	298.254	27.105	280.243	9508.593	10681.781
702.207	1015.267	328.411	14.500	259.213	9381.653	9690.327
536.584	958.508	243.024	35.000	264.633	15246.113	18612.061
1312.393	736.869	332.191	16.184	134.222	4161.035	4332.724
1390.014	711.012	323.572	1.637	134.484	8144.873	8148.199
1148.129	1067.325	345.832	52.513	79.283	5671.770	9319.727
1203.177	1067.522	301.641	31.947	30.179	5577.129	6572.649
1559.059	1321.395	140.852	24.688	11.652	9911.063	10908.069
1501.739	1383.912	131.290	19.066	59.656	8349.276	8833.877
1543.911	1448.636	98.786	28.241	40.356	8319.905	9444.086
1638.915	1433.729	81.852	24.209	16.278	7306.687	8011.208
789.936	614.592	260.970	39.309	234.314	15586.153	20143.933
956.497	628.854	328.745	18.048	184.070	12333.679	12971.899
1267.510	1111.526	262.557	28.390	23.659	8004.093	9098.337
1296.810	1177.608	227.100	23.590	29.282	7174.946	7829.241
1240.919	1209.608	226.903	23.549	29.505	7016.763	7654.211
1412.702	1143.837	220.695	15.595	25.932	6412.569	6657.663
1377.467	1088.914	242.291	21.947	29.720	4824.966	5201.955
487.639	1131.732	220.004	24.402	296.796	10868.374	11934.506
596.981	1122.741	272.444	29.412	291.457	10130.966	11629.962
224.872	425.186	175.674	27.316	191.119	16753.668	18856.355
284.175	575.509	242.543	16.916	165.548	9409.948	9835.517
1786.863	493.798	94.382	10.567	43.395	20107.960	20454.850
93.558	567.024	82.316	54.218	273.594	100063.186	171135.955
125.445	261.137	104.060	34.143	146.929	23651.127	28576.525
1509.986	1258.717	173.425	24.425	11.461	8054.728	8846.447
1313.135	1078.354	264.399	26.869	50.684	4129.437	4629.215
1377.669	1199.359	207.347	19.680	6.866	4856.725	5158.013
1179.805	1323.312	195.801	20.830	359.098	5515.364	5901.053
1122.178	1276.186	212.758	20.432	356.778	5435.441	5800.354
1302.253	1017.405	298.825	37.889	27.502	3786.559	4797.954
683.096	1384.802	253.818	81.435	120.647	5716.953	38384.719
566.791	1404.401	306.359	53.621	253.116	8234.614	13883.372
608.098	1357.809	313.864	53.637	218.577	10402.555	17545.146
619.895	1471.088	399.087	53.393	256.778	8031.299	13468.042
742.162	1468.995	338.972	82.315	145.075	4473.566	33453.507
720.268	1508.690	491.745	13.301	208.728	5516.365	5668.411
562.170	1273.873	231.973	18.085	277.488	6797.717	7151.016
644.089	1164.878	272.634	37.837	346.729	6785.424	8591.746
618.291	1227.054	245.722	11.541	246.425	6168.146	6295.420
1418.645	1256.505	181.749	24.575	8.351	5790.367	6367.137
1151.279	774.400	337.021	5.813	303.100	6072.408	6103.796
1505.813	377.313	194.396	12.722	100.910	10066.400	10319.750
97.603	1473.401	154.451	34.288	232.617	35950.437	43512.308
216.302	1360.333	147.726	28.955	210.061	59981.037	68550.034
1276.788	1267.695	201.101	17.732	42.015	6374.536	6692.492
1237.520	1322.001	191.480	20.586	21.914	8600.379	9187.008
1373.655	1292.841	175.700	16.585	39.680	6830.928	7127.436
1368.481	1349.509	162.753	17.963	36.216	7267.517	7639.929
1412.232	1386.470	149.382	8.788	41.361	7368.132	7455.650
1283.438	1378.445	167.652	16.181	15.630	4385.361	4566.259
1294.122	1444.636	151.402	12.029	23.208	5656.376	5783.364
1367.410	1455.059	143.137	12.054	23.690	6355.143	6498.417
473.125	1378.033	216.011	13.574	216.999	4793.154	4930.892
294.762	1493.780	235.055	32.522	211.652	8876.520	10527.421
1564.079	265.548	159.738	63.430	175.067	3706.283	8286.025
780.228	1462.023	332.754	82.444	269.027	3025.297	23008.148
839.736	1493.238	362.570	72.525	100.895	6502.536	21653.771
1128.634	1573.844	253.179	80.771	100.654	4878.386	30418.291
1185.601	1585.307	144.230	8.532	261.596	9228.780	9332.050
1203.417	1493.548	151.719	14.095	297.373	8941.029	9218.564
1271.737	1498.542	150.842	14.752	86.880	8094.751	8370.664
1314.149	1571.156	134.392	19.949	67.528	4392.602	4673.009
1424.777	1504.275	130.310	9.971	19.698	8514.438	8645.019
1393.901	1566.466	122.123	9.564	21.317	7482.336	7587.793
1510.340	1575.733	89.289	49.434	51.565	4104.448	6311.335
1511.771	1500.409	104.050	29.738	95.950	7912.688	9112.787
1425.537	1612.558	110.241	15.798	22.084	5685.959	5909.155
1316.259	1652.739	118.905	11.560	61.526	6095.973	6222.191
1256.111	1623.261	138.046	21.455	38.787	7075.376	7602.143
1056.764	1575.630	249.408	78.471	325.274	10527.704	52672.204
686.317	580.913	160.492	46.237	240.319	22072.671	31911.850
597.349	664.020	134.170	45.122	229.945	21643.804	30674.428
1049.849	173.949	99.818	56.743	174.045	53932.208	98345.488
587.177	1589.994	412.638	52.705	354.443	10121.181	16703.846
962.778	1576.125	258.129	77.275	146.903	13049.670	59242.310
750.730	1636.829	296.230	65.832	3.808	64453.133	157428.578
168.893	1659.229	233.804	4.326	315.172	15217.757	15261.229
255.337	1601.452	246.297	11.030	312.921	9687.538	9869.854
						
Total plan area (mm^2)	2634617.304					
Total 3D area (mm^2)	3755397.287					
						
Slope bitmap	Double click to view	Darkest: 0 degree slope	Brightest: 90 degree slope			
Slope direction bitmap	Double click to view	0 deg = red, 120 deg = green, 240 deg = blue				
Surface bitmap	Double click to view	Darkest: z = 0.000 (mm)	Lightest: z = 507.224 (mm)			
