Surface analysis

Generated: Wednesday 07 July 2021 13:11:56

						
Left filename	left1_2m.jpg					
Left frame number	      0					
Plane definition points	161					
RMS plane fit (mm)	55.466					
X plane direction (unit vector)	[0.9989, -0.0000, 0.0462]					
Y plane direction (unit vector)	[0.0073, 0.9873, -0.1588]					
Z plane direction (unit vector)	[-0.0456, 0.1590, 0.9862]					
Plane shift (mm)	[-818.5782, -294.6250, -1553.4170]					
						
Transformed coordinates						
X (mm)	Y (mm)	Z (mm)				
1186.050	0.000	201.938				
816.820	164.328	116.820				
977.982	213.025	217.812				
1121.190	1013.929	73.950				
889.528	992.999	41.844				
556.766	470.430	108.799				
372.727	294.119	0.000				
1413.677	761.531	154.684				
1135.002	799.743	59.915				
942.509	591.248	39.023				
280.997	856.434	76.808				
144.772	484.014	44.786				
123.964	22.480	71.203				
0.000	1053.286	146.844				
468.194	896.524	98.198				
1301.519	453.728	89.361				
433.266	752.097	151.168				
796.082	44.287	262.503				
625.631	772.480	104.003				
1105.944	330.950	26.624				
357.869	1141.629	112.653				
828.153	1147.847	119.167				
724.939	251.081	1.699				
827.696	775.264	90.392				
1080.324	531.400	45.675				
414.244	120.522	15.216				
29.192	917.889	82.158				
339.611	539.177	129.065				
845.045	471.029	24.773				
1336.253	1076.823	95.070				
200.666	33.285	107.529				
107.236	857.280	88.100				
856.759	869.707	75.504				
219.133	1098.478	122.045				
530.239	1090.726	143.658				
117.344	1071.743	139.890				
254.728	93.270	92.018				
317.052	1038.252	140.506				
1023.566	1085.340	91.588				
1205.715	606.067	105.395				
197.061	290.757	100.334				
177.219	957.676	142.829				
523.211	697.530	170.677				
323.223	106.164	82.995				
976.184	672.002	58.671				
1225.687	1033.883	66.789				
359.282	945.489	139.362				
775.042	948.794	80.097				
683.295	971.930	86.375				
172.628	204.297	112.203				
591.959	941.950	85.034				
1010.668	970.864	81.370				
278.746	898.015	142.346				
523.495	544.945	146.047				
703.701	903.481	71.479				
1302.926	928.260	65.589				
193.180	853.194	146.384				
529.662	237.969	7.424				
278.395	639.845	117.966				
440.872	1097.101	148.746				
518.305	798.824	94.702				
748.193	1093.212	162.216				
302.528	773.652	84.014				
1170.359	65.428	154.941				
1002.137	828.890	103.346				
1210.433	776.159	55.549				
201.108	353.853	108.820				
1257.852	809.148	125.264				
113.424	956.269	170.940				
155.037	745.033	168.646				
454.839	980.389	156.308				
744.206	805.925	129.781				
231.620	223.592	103.784				
709.141	94.991	199.989				
892.850	736.751	98.625				
362.861	459.198	120.217				
600.713	1115.707	158.678				
632.507	840.807	138.526				
212.024	676.847	155.828				
853.381	590.779	62.113				
120.518	650.390	129.566				
575.091	72.954	137.442				
894.485	662.775	96.047				
501.542	628.234	189.946				
123.795	134.547	39.505				
621.600	425.526	108.749				
1334.952	671.139	73.912				
429.588	640.110	103.981				
1251.119	131.907	101.511				
676.833	1095.964	164.468				
783.585	620.946	78.500				
681.134	601.758	85.693				
834.438	1081.450	72.203				
95.480	567.763	53.938				
1054.593	598.901	72.556				
222.703	553.656	123.360				
450.272	558.927	108.506				
612.891	549.353	150.156				
1225.821	959.654	58.705				
995.745	431.777	61.900				
1141.013	545.804	77.624				
973.183	512.444	74.171				
369.108	385.659	28.560				
1165.556	327.823	64.261				
909.517	474.319	52.103				
51.632	789.458	79.217				
649.139	491.988	121.848				
372.696	870.512	104.202				
646.563	317.081	42.315				
1129.819	255.185	125.256				
1068.796	423.825	88.800				
933.268	135.041	243.397				
439.189	401.705	31.576				
1170.454	400.943	80.301				
853.009	396.396	20.452				
113.335	362.117	27.641				
406.934	34.728	62.800				
522.309	948.415	145.849				
359.683	606.920	147.249				
987.250	127.697	260.664				
319.714	282.417	95.818				
713.376	351.411	32.282				
295.325	219.657	91.707				
275.575	358.355	100.146				
861.143	49.470	260.923				
761.531	544.326	94.542				
604.642	1013.847	121.271				
444.168	288.580	26.553				
858.011	290.449	138.652				
883.153	351.211	191.451				
793.480	276.236	101.094				
955.472	270.373	162.579				
775.124	430.035	34.539				
1223.935	246.006	90.938				
776.787	105.582	215.469				
253.935	438.691	43.232				
619.739	167.868	32.393				
1119.627	1116.175	86.427				
611.676	621.803	165.237				
1018.731	757.982	102.714				
707.480	418.497	38.658				
933.058	206.780	154.434				
722.447	186.362	20.294				
1215.534	863.274	51.725				
520.251	171.003	101.939				
742.665	704.891	106.227				
1078.629	200.357	283.190				
1099.893	136.673	172.716				
1258.216	363.665	113.863				
651.869	244.072	48.732				
522.552	361.028	49.809				
850.039	112.203	215.841				
425.582	210.473	28.268				
1123.125	896.163	72.815				
782.406	347.027	26.505				
477.573	71.209	108.806				
1110.499	688.768	31.487				
923.890	880.298	113.467				
959.093	337.010	154.677				
1273.508	729.675	119.129				
430.705	465.507	122.467				
						
Triangle data						
X centre (mm)	Y centre (mm)	Z centre (mm)	Slope (deg)	Direction (deg)	Plan area (mm^2)	3D area (mm^2)
406.863	521.203	120.012	11.379	55.213	4975.756	5075.525
377.726	487.961	123.916	6.798	190.771	2786.343	2806.069
410.918	442.137	91.420	54.750	176.025	2191.025	3796.277
468.157	523.126	125.673	27.789	297.944	3557.012	4020.718
503.655	493.627	125.771	24.760	164.177	4778.607	5262.357
475.553	445.881	87.614	54.700	173.364	4042.356	6995.397
1247.264	771.661	99.980	52.150	255.481	2142.522	3491.710
1315.013	766.784	133.026	14.397	241.693	5819.217	6007.882
1340.712	720.782	115.908	40.065	184.300	5081.092	6639.204
1271.392	668.960	99.479	28.119	129.246	5781.566	6555.271
1229.885	703.967	93.358	39.946	292.063	5473.985	7140.103
1044.611	363.929	90.034	42.563	110.797	6706.853	9106.007
1007.878	397.537	101.792	47.856	346.865	3607.133	5375.828
1006.836	312.778	114.627	41.277	85.358	4903.848	6525.118
932.572	319.532	169.569	27.003	79.674	2555.899	2868.641
945.997	373.333	136.009	43.997	40.128	3858.527	5363.755
978.899	893.351	99.394	14.759	57.532	5773.838	5970.848
890.059	914.335	76.938	37.732	304.821	3964.802	5013.152
941.362	948.054	78.894	31.372	338.591	6445.954	7549.691
891.167	828.919	95.865	29.637	271.969	4653.850	5354.334
939.626	815.313	105.146	7.237	154.942	6413.962	6465.463
1152.409	613.547	71.502	32.561	287.572	5544.492	6578.495
1102.035	611.158	60.556	21.381	24.234	5367.344	5764.057
1175.549	690.331	64.144	30.747	301.091	8292.867	9649.185
1151.978	754.890	48.984	14.167	184.720	4474.438	4614.798
1088.077	748.831	64.705	31.787	126.256	5939.954	6988.112
1035.138	706.251	64.291	35.442	156.495	5417.553	6649.715
1047.092	653.223	54.238	21.406	23.701	5566.596	5979.064
470.689	120.911	75.321	49.977	296.200	4212.236	6549.981
524.305	105.055	116.062	19.591	303.394	4828.627	5125.323
432.917	75.486	62.274	49.485	303.050	2896.879	4459.152
486.533	59.630	103.016	37.610	201.377	1717.160	2167.617
841.190	329.562	118.870	58.639	263.180	3008.193	5780.166
839.523	364.878	79.470	72.378	326.316	2339.165	7726.727
811.299	304.571	88.750	50.630	319.778	2362.773	3724.819
763.088	324.891	53.294	47.417	8.035	2419.071	3575.006
756.969	376.158	31.109	6.788	139.077	2849.073	2869.185
803.513	391.153	27.166	9.493	120.193	3110.083	3153.269
1045.310	898.639	85.844	12.660	49.980	8301.653	8508.518
1086.755	841.599	78.692	17.773	107.451	6232.298	6544.652
1084.995	960.319	76.045	4.059	96.861	6549.516	6565.982
1156.712	956.582	68.490	8.088	92.945	6108.449	6169.814
1188.160	906.364	61.082	12.198	115.549	4622.362	4729.139
1157.887	853.060	61.485	12.344	120.333	4259.739	4360.555
414.159	264.391	18.274	20.762	286.615	2841.495	3038.831
491.832	206.482	45.877	55.366	352.888	3355.554	5904.147
466.471	245.674	20.748	11.823	97.528	3809.169	3891.724
453.359	167.333	48.474	38.592	266.792	4481.533	5733.767
364.545	241.416	39.992	40.753	38.350	5205.036	6871.026
387.683	145.720	42.160	39.358	107.293	4012.310	5189.244
348.043	178.764	67.657	26.200	84.904	7263.501	8095.211
814.549	127.371	182.710	60.958	354.674	2019.100	4159.250
807.636	87.358	231.271	36.799	354.448	2308.899	2883.440
835.755	68.653	246.422	35.512	357.390	2069.542	2542.455
866.709	137.191	192.019	58.156	333.218	2548.467	4830.195
881.483	98.905	240.053	38.877	321.326	2737.410	3516.288
498.794	295.859	27.929	18.976	176.572	5080.462	5372.425
468.636	350.438	35.979	14.133	257.333	4613.953	4757.962
506.169	411.054	63.394	30.305	225.663	5255.922	6087.790
566.973	418.995	89.119	28.321	214.640	4314.661	4901.355
566.259	305.360	33.183	19.479	190.247	7474.093	7927.855
596.905	367.879	66.958	33.973	194.664	6175.639	7446.791
674.457	270.745	30.915	32.816	78.031	2685.989	3196.038
600.423	216.637	29.516	18.897	257.612	4558.305	4817.983
609.364	266.374	32.823	19.134	280.477	4477.296	4739.117
699.752	227.172	23.575	33.909	66.921	2355.788	2838.549
664.685	199.434	33.806	18.373	149.363	3616.285	3810.531
1243.396	406.112	94.508	23.687	329.659	4759.125	5196.942
1198.075	364.144	86.142	26.535	247.835	3299.873	3688.402
1270.285	316.433	101.578	36.004	95.958	4698.328	5807.714
1244.423	247.193	102.104	28.550	266.135	3555.009	4047.142
1215.902	312.498	89.687	27.484	265.169	4836.791	5452.132
1085.834	109.933	196.107	41.552	56.860	4328.839	5784.445
1055.258	154.909	238.857	59.416	148.058	3682.217	7237.138
1102.781	197.405	193.721	74.789	98.112	2212.955	8434.410
1173.790	111.336	143.056	27.808	64.968	5219.094	5900.535
1191.649	171.528	121.722	27.478	66.618	8562.568	9651.316
1151.216	212.621	129.637	26.372	52.623	5714.238	6378.018
1014.620	180.360	253.889	36.435	306.358	4235.329	5264.319
1104.798	262.164	145.023	64.733	36.634	2593.746	6076.750
1046.682	267.227	157.464	62.764	3.629	8998.004	19661.157
1004.027	227.919	221.194	42.906	323.274	2743.363	3745.366
704.167	761.099	113.337	15.457	213.418	5964.288	6188.122
659.991	699.725	125.156	23.663	27.856	9288.779	10141.453
678.492	642.817	119.052	50.074	129.048	4198.451	6541.653
821.615	714.310	97.555	8.252	41.960	7132.583	7207.206
806.912	662.871	93.591	19.051	184.720	5510.579	5829.878
771.522	762.027	108.800	24.338	121.896	4241.308	4654.983
735.795	642.532	90.140	16.545	155.960	4692.724	4895.413
556.551	192.280	47.252	56.352	29.519	3345.932	6038.599
571.694	137.275	90.591	46.503	43.332	4791.403	6961.009
1227.940	816.194	77.513	57.511	274.951	1981.310	3688.604
1186.990	813.059	55.730	4.619	60.509	3345.749	3356.650
1248.094	917.063	58.673	7.339	242.099	3877.162	3909.188
1258.771	866.894	80.859	47.074	316.565	3740.109	5491.664
683.775	149.740	84.225	63.625	353.088	4569.224	10285.205
736.125	128.978	145.251	64.737	344.977	3019.986	7076.369
772.018	152.091	117.527	64.758	345.134	3213.043	7534.576
777.582	208.975	79.402	46.219	265.795	5023.443	7260.339
746.955	237.893	41.029	58.248	282.440	2186.602	4155.108
948.102	184.949	205.214	63.523	307.978	1612.050	3615.754
869.296	220.519	136.635	16.982	255.483	6455.705	6750.025
894.382	168.717	171.550	55.606	327.927	4173.854	7388.863
955.504	230.060	178.275	56.578	284.843	1358.427	2466.297
915.513	255.868	151.888	14.382	261.310	3323.892	3431.435
748.045	464.286	55.913	27.855	163.798	3943.972	4460.822
706.050	484.937	85.016	41.563	140.648	5656.569	7560.003
731.993	399.981	35.160	6.647	139.314	2303.033	2318.619
680.819	398.478	59.896	39.165	91.652	2859.982	3688.726
659.406	445.337	89.752	42.954	123.786	2950.643	4031.452
1051.957	795.538	88.658	19.282	78.251	4468.734	4734.298
962.588	722.245	86.670	28.570	173.799	4959.971	5647.648
971.240	774.541	101.561	1.934	241.938	4639.114	4641.759
582.687	572.034	153.813	11.957	189.697	3241.086	3312.965
545.571	598.327	167.077	27.217	157.525	4515.900	5078.159
586.839	697.271	146.639	27.957	45.614	7193.169	8143.554
545.476	649.189	175.287	17.343	49.168	3885.623	4070.677
635.234	590.971	133.695	47.902	99.877	2503.980	3735.067
1227.189	1075.627	82.762	21.505	196.013	6826.527	7337.322
1155.501	1054.662	75.722	8.612	142.802	5357.768	5418.863
1088.128	1071.814	83.988	8.641	142.535	4935.032	4991.695
990.449	1116.454	99.061	9.518	144.440	6015.092	6099.049
634.657	111.937	123.275	57.996	333.941	5869.651	11075.233
272.083	510.508	98.552	36.802	190.771	6494.087	8110.361
318.803	479.022	97.504	35.605	245.259	4594.271	5650.670
243.539	383.633	84.066	36.188	5.685	3039.916	3766.538
199.939	425.519	65.613	33.548	23.684	5827.729	6992.495
328.635	427.849	64.003	53.818	199.869	4069.232	6892.850
299.540	394.235	57.313	44.815	31.412	4052.437	5712.553
207.137	492.120	70.459	40.048	201.651	5567.181	7272.534
760.670	81.620	225.987	36.554	333.348	2175.390	2708.082
1173.103	276.338	93.485	37.258	34.068	3582.165	4500.667
824.393	432.487	26.588	9.555	103.906	2772.470	2811.471
793.900	481.797	51.285	32.339	138.647	4274.292	5058.948
898.878	304.011	164.227	38.941	208.951	3213.338	4131.354
822.770	243.671	118.855	30.385	271.788	3776.604	4377.913
743.932	292.909	45.025	53.703	250.574	3583.794	6053.982
881.893	407.309	88.002	74.033	300.550	2451.096	8910.421
929.472	419.102	101.818	48.252	21.043	5868.468	8813.411
395.335	322.786	18.371	27.241	230.469	3259.818	3666.480
417.488	358.648	28.896	3.217	215.371	4003.867	4010.186
654.923	1027.247	124.038	32.361	169.890	4742.364	5614.285
627.396	1075.173	148.139	22.392	204.834	3837.993	4150.988
578.531	1073.427	141.202	20.773	192.459	3638.321	3891.283
626.632	975.909	97.560	29.065	163.266	3093.251	3538.904
552.397	1017.663	136.926	16.675	90.247	5599.066	5844.863
572.970	968.071	117.385	46.106	128.531	2544.812	3670.413
697.268	546.024	100.695	17.568	19.107	5331.322	5592.150
742.083	589.010	86.245	11.454	9.305	3713.289	3788.740
799.499	585.350	78.385	17.515	66.448	3006.513	3152.673
819.986	535.378	60.476	32.371	123.369	5305.915	6282.178
1011.481	59.056	241.175	15.349	147.824	15827.498	16412.924
947.758	31.252	241.788	34.316	173.412	2451.275	2967.846
927.221	104.069	254.994	26.555	328.387	2574.543	2878.165
264.117	310.509	98.766	2.891	137.212	4472.987	4478.685
224.581	334.321	103.100	10.737	138.724	2340.188	2381.890
321.466	342.143	74.841	36.733	63.618	4153.948	5183.163
329.256	265.397	62.508	65.184	112.855	1520.832	3623.625
260.558	178.840	95.837	11.016	107.119	4105.634	4182.700
291.092	139.697	88.907	8.307	106.890	4066.664	4109.789
282.220	241.888	97.103	12.762	126.875	2047.064	2098.913
660.513	364.673	61.115	33.559	141.190	4051.269	4861.592
694.959	306.524	25.432	21.651	133.143	3550.178	3819.658
249.465	265.588	99.979	4.801	29.825	3974.891	3988.887
353.850	320.731	41.459	61.931	97.305	2447.569	5201.758
1114.553	64.375	205.848	52.270	43.802	5501.725	8990.698
966.167	158.588	240.624	28.316	331.714	2269.093	2577.498
325.896	595.314	131.426	23.889	250.976	3083.814	3372.754
407.513	666.376	134.133	43.388	118.338	3853.159	5302.172
365.159	710.890	127.477	27.673	294.247	10283.116	11611.259
313.535	673.472	116.410	20.898	321.066	5835.745	6246.672
383.189	568.341	128.273	22.848	144.155	3550.084	3852.342
413.181	601.986	119.912	29.328	70.189	3180.800	3648.412
481.781	941.776	133.451	36.748	194.544	2615.697	3264.421
502.462	1006.510	148.605	8.994	87.615	4927.648	4988.985
502.936	881.254	112.916	33.210	240.059	3943.622	4713.475
544.191	896.396	108.528	42.459	113.467	5222.470	7078.807
328.295	78.054	79.271	10.449	124.754	2986.167	3036.525
287.443	53.761	87.449	12.710	73.635	6147.535	6301.949
381.467	87.138	53.670	39.748	53.224	3852.084	5010.065
243.855	30.164	80.511	79.039	177.192	1059.072	5570.013
796.355	26.338	175.747	78.363	184.658	10480.937	51959.364
572.316	19.069	111.980	67.138	358.238	9684.857	24928.030
592.703	50.656	154.248	31.947	303.238	6634.047	7818.241
86.816	573.112	53.599	10.571	221.986	2529.424	2573.093
117.863	471.298	42.122	7.758	195.789	4320.715	4360.627
153.072	399.994	60.416	42.640	275.956	5479.501	7448.818
170.501	335.575	78.932	43.073	265.416	2785.761	3813.579
161.008	285.724	80.060	34.193	296.992	4491.211	5429.733
136.586	233.653	59.783	55.718	269.403	5921.274	10512.447
869.191	447.248	32.443	23.319	256.235	2418.991	2634.162
1204.328	466.825	82.429	4.055	273.311	10270.151	10295.927
1115.065	385.239	65.242	35.101	186.021	4295.705	5250.548
1147.318	353.239	57.062	33.603	254.600	2187.079	2625.890
1126.754	456.857	82.242	5.665	67.994	7026.312	7060.800
390.386	415.521	60.117	51.318	169.028	2626.956	4203.121
1096.711	500.343	70.700	38.373	306.342	3181.260	4057.810
1048.289	462.334	65.458	28.402	323.604	3975.045	4519.007
1133.773	304.653	72.047	51.543	332.954	2220.919	3570.993
318.740	833.533	88.342	16.712	271.715	3947.104	4121.176
369.497	798.754	113.128	27.063	286.630	7087.917	7959.412
310.813	874.987	107.785	57.673	182.041	1922.294	3594.778
336.908	904.672	128.637	26.807	145.860	3337.610	3739.485
424.719	839.711	117.856	20.728	353.988	6441.976	6887.815
400.057	904.175	113.920	25.303	157.391	3754.557	4152.988
606.265	503.924	126.934	26.947	182.565	3040.193	3410.478
609.168	462.648	113.132	10.545	214.512	2772.799	2820.434
647.721	547.699	119.233	41.792	85.532	2907.186	3899.284
104.635	797.257	111.988	38.807	302.111	4741.691	6084.839
109.062	728.294	125.810	42.145	264.656	5660.006	7633.671
62.687	854.876	83.158	6.642	248.917	4331.631	4360.904
89.210	669.204	87.574	58.886	254.941	4586.955	8876.789
869.314	512.042	46.330	26.470	235.319	3846.566	4297.018
941.737	526.004	55.099	29.161	296.881	3093.308	3542.270
901.802	552.115	51.080	14.668	81.469	5203.094	5378.384
959.482	472.847	62.725	16.995	225.732	2997.957	3134.858
1016.418	491.874	60.582	16.105	104.865	4535.179	4720.442
1036.033	547.581	64.134	22.798	131.423	3859.905	4187.000
990.095	567.531	61.917	24.420	314.994	4533.708	4979.155
1216.082	535.200	90.793	17.515	221.436	7815.078	8195.023
1091.976	558.702	65.285	34.104	215.798	2233.589	2697.488
1251.478	973.932	63.694	9.794	230.777	2859.564	2901.856
1190.899	1002.489	66.481	8.010	140.612	3879.635	3917.854
564.384	521.576	135.001	27.004	182.346	3403.974	3820.520
460.467	609.090	134.144	51.662	258.154	2797.900	4510.589
491.770	577.368	148.166	43.545	222.806	2895.841	3995.163
280.236	577.559	123.463	5.431	336.437	5441.310	5465.844
237.707	623.449	132.384	26.504	116.818	3890.625	4347.529
154.318	535.144	74.028	37.007	232.343	4979.701	6235.859
146.234	590.603	102.288	43.782	220.793	5432.653	7524.689
185.081	626.964	136.251	19.214	216.160	5777.614	6118.440
991.095	620.717	56.750	17.505	247.239	4396.741	4610.248
803.595	1107.503	117.862	48.758	122.718	2826.220	4287.059
895.386	1104.879	94.319	35.791	186.993	6291.030	7755.677
915.844	1053.263	68.545	22.432	193.195	8471.497	9164.970
833.003	1007.748	64.714	21.387	106.149	6280.851	6745.361
785.891	1041.152	104.839	46.754	111.192	6069.691	8859.190
843.817	624.833	78.887	25.929	177.062	3132.489	3483.111
701.899	1119.840	147.438	32.181	7.820	3468.382	4097.942
751.060	1112.341	148.617	35.168	4.773	2059.435	2519.278
702.774	1053.702	137.686	32.181	179.337	4416.705	5218.422
1322.105	449.055	115.185	50.755	280.647	10291.010	16266.987
1202.509	65.778	152.796	36.306	4.585	3163.571	3925.660
462.022	696.579	141.942	31.638	228.761	5136.690	6033.363
484.780	655.291	154.868	51.473	299.564	2621.741	4209.070
1280.728	576.978	89.556	12.855	80.818	12960.956	13294.146
1350.049	628.799	105.986	53.943	281.673	7046.937	11972.456
149.475	63.437	72.745	30.359	298.787	4298.764	4981.898
183.717	144.038	81.242	40.825	223.777	5574.157	7366.288
193.063	87.034	79.684	28.511	332.735	5042.779	5738.744
896.791	614.934	65.728	33.989	157.103	3198.799	3857.944
921.173	690.509	84.448	24.746	93.069	3029.397	3335.716
937.726	642.008	64.581	34.334	131.831	3143.384	3806.630
871.677	724.930	95.021	8.738	255.634	2378.436	2406.369
693.438	70.744	199.978	31.873	302.891	4356.339	5129.791
162.526	690.757	151.347	21.416	208.535	3873.538	4160.839
223.196	731.844	136.163	30.199	64.463	5843.854	6761.476
264.315	696.781	119.269	33.474	78.036	4886.958	5858.704
667.448	806.404	124.104	26.722	188.806	3935.965	4406.608
693.471	850.071	113.262	38.146	22.803	4741.998	6029.683
592.147	804.037	112.410	27.762	202.992	3757.206	4245.941
580.924	860.527	106.087	30.991	302.970	6626.512	7729.950
642.722	895.413	98.346	37.118	27.714	4871.021	6108.694
595.578	1135.061	130.166	55.678	358.701	6850.428	12149.469
523.941	1101.178	150.361	32.389	178.944	1340.889	1587.922
466.484	1118.146	140.026	30.335	347.306	4330.856	5017.877
859.102	793.907	88.173	9.572	350.418	3636.323	3687.664
219.659	173.720	102.669	9.871	110.670	4066.872	4127.981
200.436	239.549	105.441	8.629	45.253	2314.478	2340.974
740.983	886.067	93.786	30.409	317.573	4397.604	5099.066
792.003	874.809	95.127	23.140	49.486	7056.812	7674.247
809.554	816.965	98.559	25.456	88.652	4388.082	4859.886
427.438	940.801	131.289	34.421	174.005	4240.023	5139.986
404.254	1038.581	148.520	6.088	300.273	7636.599	7679.908
377.058	988.043	145.392	9.554	241.700	5168.941	5241.646
475.316	1056.072	149.571	5.440	40.688	5170.541	5193.938
216.915	790.626	133.015	29.817	89.628	7430.574	8564.335
151.818	818.502	134.376	38.299	303.655	4725.837	6021.765
76.923	1027.099	152.558	15.049	3.638	6738.881	6978.195
47.539	975.815	133.314	44.885	229.870	6262.580	8838.851
132.626	923.742	133.956	44.425	152.027	3153.133	4415.082
83.284	910.479	113.733	46.484	221.105	4050.283	5882.277
135.996	995.229	151.220	26.740	59.708	3680.544	4121.290
1324.818	832.980	115.179	27.208	356.431	10353.513	11641.639
258.902	827.760	102.402	39.820	69.622	3669.712	4777.866
735.510	1004.646	109.563	30.478	187.680	6314.390	7326.770
473.255	815.815	114.689	30.283	65.972	5324.871	6166.276
491.594	749.484	138.849	38.676	17.848	4421.576	5663.635
555.716	756.278	123.127	37.280	7.443	5371.108	6750.275
371.931	1092.327	133.968	23.546	326.650	5199.091	5671.282
216.382	902.961	143.853	2.683	35.466	4827.718	4833.017
250.974	869.214	121.846	60.253	150.985	1829.369	3686.951
159.212	889.383	125.771	34.414	264.127	4457.190	5402.846
1288.289	1012.989	75.816	14.004	231.715	7497.548	7727.215
1350.952	922.205	105.115	39.516	269.067	11005.085	14265.497
659.652	939.121	80.963	11.789	165.661	3431.825	3505.768
720.679	941.402	79.317	12.065	176.069	2903.971	2969.567
257.672	964.647	141.894	0.848	46.534	8261.619	8262.525
318.360	960.585	140.738	2.012	84.152	4737.799	4740.721
974.588	1016.401	71.601	18.758	261.289	7076.496	7473.436
1051.808	1023.378	82.303	8.364	133.530	6048.306	6113.334
840.443	937.167	65.815	18.121	51.153	6333.327	6663.840
171.232	1042.632	134.921	10.243	55.049	6605.766	6712.754
237.801	1031.469	135.127	10.813	334.372	8155.827	8303.248
298.018	1092.786	125.068	15.498	356.205	6290.454	6527.792
112.159	1074.502	136.260	47.911	354.092	629.290	938.841
						
Total plan area (mm^2)	1393240.819					
Total 3D area (mm^2)	1764121.675					
						
Slope bitmap	Double click to view	Darkest: 0 degree slope	Brightest: 90 degree slope			
Slope direction bitmap	Double click to view	0 deg = red, 120 deg = green, 240 deg = blue				
Surface bitmap	Double click to view	Darkest: z = 0.000 (mm)	Lightest: z = 283.190 (mm)			
