Surface analysis

Generated: Wednesday 07 July 2021 14:08:29

						
Left filename	Left3_2m.jpg					
Left frame number	      0					
Plane definition points	119					
RMS plane fit (mm)	58.293					
X plane direction (unit vector)	[0.9993, -0.0000, 0.0375]					
Y plane direction (unit vector)	[-0.0084, 0.9743, 0.2252]					
Z plane direction (unit vector)	[-0.0365, -0.2253, 0.9736]					
Plane shift (mm)	[-992.6135, -1041.3339, -1619.8525]					
						
Transformed coordinates						
X (mm)	Y (mm)	Z (mm)				
951.053	830.629	0.000				
674.649	701.854	79.984				
0.000	1154.581	99.380				
85.514	241.306	220.874				
1492.877	1227.277	193.922				
1607.280	182.951	260.526				
1310.166	742.247	225.213				
1094.006	478.759	76.382				
1300.997	384.571	181.911				
469.737	997.624	173.248				
222.391	1284.343	144.591				
98.210	805.894	149.116				
1301.628	963.042	199.697				
1485.287	964.114	231.144				
550.721	0.000	171.768				
708.818	344.208	85.975				
1059.833	203.684	83.100				
732.804	1184.781	171.464				
1122.030	1281.626	203.128				
367.699	579.369	182.740				
509.818	227.980	180.322				
1557.564	516.614	187.739				
749.022	988.490	337.622				
1039.044	1114.358	175.809				
793.799	508.293	46.129				
882.070	150.209	80.326				
121.729	1079.800	136.641				
939.169	611.998	41.236				
438.049	1175.757	202.354				
282.147	852.183	187.392				
1167.514	884.189	186.956				
652.345	113.501	135.053				
460.801	1262.434	173.010				
719.747	1275.323	164.605				
773.132	16.218	152.848				
784.946	835.561	82.710				
605.832	1068.230	146.426				
1378.169	754.461	229.717				
51.910	1085.968	137.941				
739.430	1078.420	155.093				
1411.708	1071.997	216.762				
106.846	1150.981	126.693				
280.530	1060.208	151.490				
758.210	641.457	60.859				
829.853	1090.105	224.116				
910.906	952.210	52.399				
996.682	654.473	172.348				
564.585	659.211	134.708				
788.884	723.306	31.669				
206.778	335.944	232.775				
432.689	216.330	235.665				
1009.620	938.926	146.463				
311.787	923.321	194.387				
626.216	881.787	136.960				
927.695	465.532	91.396				
496.340	883.354	165.468				
799.815	1149.111	227.021				
1094.883	838.533	141.772				
380.035	881.602	185.144				
261.633	438.765	217.277				
986.361	89.558	128.498				
540.137	757.845	158.147				
1201.924	504.234	144.567				
1503.641	406.570	216.471				
88.757	1015.429	145.740				
943.551	745.126	42.283				
1166.973	1001.397	210.798				
101.627	589.720	167.544				
1078.102	405.639	91.894				
603.444	806.282	125.179				
462.598	693.483	177.567				
1087.109	1036.730	203.512				
276.344	755.460	197.493				
804.552	439.432	87.049				
1228.162	419.453	166.987				
1159.713	632.574	160.088				
831.195	594.242	82.198				
291.304	636.255	221.845				
1004.261	526.243	158.332				
477.951	593.281	178.164				
555.847	999.016	158.125				
340.404	758.180	191.590				
541.100	1275.374	162.665				
659.400	524.364	83.001				
1376.469	532.539	206.444				
219.683	632.207	220.008				
455.887	758.254	167.245				
1313.830	225.845	172.357				
1313.692	488.228	183.132				
208.303	958.178	162.114				
136.765	501.014	171.869				
364.200	500.694	200.700				
372.711	1004.382	166.059				
80.764	661.660	163.949				
751.546	248.289	99.618				
864.763	698.460	18.743				
500.606	505.867	176.257				
538.875	412.132	148.100				
473.048	419.692	185.902				
897.449	378.241	117.672				
164.229	414.590	196.028				
974.582	1004.307	126.556				
880.288	280.302	105.134				
1522.689	292.900	234.833				
68.651	918.588	123.357				
296.070	316.511	259.763				
1239.558	230.118	162.025				
346.881	390.340	222.021				
677.058	184.876	115.407				
211.434	262.896	263.621				
1174.172	156.984	143.083				
594.522	571.979	132.270				
303.126	557.745	232.462				
1468.026	152.294	227.888				
1466.555	566.611	206.773				
863.293	50.063	130.584				
1069.299	111.138	124.628				
966.704	1228.027	182.271				
699.348	33.880	191.807				
						
Triangle data						
X centre (mm)	Y centre (mm)	Z centre (mm)	Slope (deg)	Direction (deg)	Plan area (mm^2)	3D area (mm^2)
674.400	16.699	172.141	55.050	172.430	2562.452	4473.095
634.138	49.127	166.209	31.656	334.848	6713.121	7886.537
676.250	110.752	147.422	32.607	313.090	2661.268	3159.206
716.513	78.325	153.354	42.148	48.028	5373.739	7247.972
945.201	1144.163	194.066	13.310	69.224	12766.517	13118.923
865.457	1155.747	211.136	13.776	73.327	6108.926	6289.864
1042.593	1208.004	187.069	8.522	218.858	10766.535	10886.741
828.755	1217.487	191.299	27.110	2.954	13691.120	15380.949
936.160	1261.659	183.335	8.530	218.775	10291.579	10406.691
1174.562	117.663	160.338	63.444	346.709	2595.404	5805.293
1237.166	140.139	165.200	20.700	311.127	6982.053	7463.882
1101.102	157.269	116.937	28.584	319.173	5069.819	5773.515
1038.498	134.793	112.075	24.084	351.215	3939.942	4315.618
1034.817	72.858	170.440	63.859	345.939	5625.182	12767.734
1105.893	97.305	162.323	50.771	342.962	5651.264	8935.872
910.574	96.610	113.136	28.912	343.882	5791.574	6616.208
839.498	72.163	121.253	26.293	7.323	4196.831	4681.122
1407.064	617.870	214.311	6.344	161.040	9967.104	10028.516
1443.337	761.729	222.545	7.700	119.633	19326.203	19502.042
1503.135	682.446	208.552	10.457	112.078	18556.456	18869.850
1448.888	501.907	209.896	3.441	336.033	7840.548	7854.706
1509.253	496.598	203.661	16.941	65.778	6355.484	6643.793
1532.665	209.382	241.082	13.963	280.575	8952.041	9224.629
1434.848	223.680	211.692	18.396	283.288	12850.716	13542.771
1318.676	178.374	181.109	18.029	298.473	10444.954	10984.309
320.709	591.123	212.349	36.137	70.884	2662.633	3296.932
345.008	545.936	205.301	36.170	74.371	2502.325	3099.744
233.841	499.175	207.203	20.001	269.891	8719.901	9279.593
219.858	563.656	208.113	19.347	240.236	8560.685	9073.026
309.653	499.068	216.813	20.895	127.627	4816.957	5156.029
271.371	608.736	224.772	7.654	345.785	2835.418	2860.907
611.252	644.348	115.654	24.974	74.313	5438.836	5999.836
675.793	638.430	91.038	21.921	63.307	7845.990	8457.459
670.710	579.266	92.044	31.835	116.700	6150.755	7239.838
584.842	534.070	130.509	32.762	108.333	4380.466	5209.096
524.360	557.042	162.230	22.669	78.369	4853.626	5259.960
545.686	608.157	148.381	23.271	74.583	4765.499	5187.521
1157.855	196.929	129.403	25.953	288.427	5707.779	6347.961
1242.520	204.316	159.155	11.009	228.841	2855.571	2909.110
398.281	159.742	223.685	14.889	164.172	21183.841	21919.826
282.556	168.067	218.754	34.382	199.545	20214.612	24493.921
238.094	305.117	252.053	24.749	332.439	3216.083	3541.362
167.908	280.049	239.090	29.613	314.207	4649.410	5347.938
313.398	265.245	253.016	8.136	132.019	7901.835	7982.180
777.420	117.101	116.194	22.892	33.150	15623.129	16958.747
770.225	194.458	98.450	10.333	77.319	7791.320	7919.773
613.074	175.453	143.594	23.792	72.943	6501.043	7104.826
712.474	259.125	100.333	10.415	21.005	4927.149	5009.686
631.898	252.355	127.235	23.116	76.161	14007.897	15230.740
394.710	436.909	202.874	16.382	58.432	6707.327	6991.151
301.528	381.872	233.020	23.248	23.131	4377.176	4763.988
324.238	443.266	213.332	10.866	14.998	5123.088	5216.616
358.547	307.727	239.149	24.166	54.734	7588.382	8317.267
417.539	342.121	214.529	17.267	50.675	12236.418	12813.915
1181.941	351.736	140.302	26.493	263.547	14284.499	15960.502
1125.831	279.814	112.340	23.682	269.495	17906.731	19553.293
1256.239	344.714	170.308	12.811	259.949	6696.306	6867.247
1284.795	280.178	172.097	9.102	243.385	5866.980	5941.800
254.827	363.740	236.605	20.271	319.184	5123.562	5461.842
69.773	1006.662	135.679	25.960	254.031	2493.334	2773.139
40.187	1053.046	120.226	45.173	259.345	3769.998	5347.766
49.805	911.610	128.895	15.984	53.869	7389.771	7686.969
82.542	795.381	145.474	19.683	293.480	3114.683	3307.958
125.054	894.220	144.862	19.294	294.469	8454.093	8957.160
121.904	964.065	143.737	16.230	230.702	6363.984	6628.118
1379.172	301.105	196.367	15.900	253.219	17005.926	17682.426
1442.442	361.347	211.071	12.747	305.257	11726.746	12023.053
1527.965	405.361	213.014	13.524	39.008	4112.791	4230.090
1562.511	330.822	227.699	12.182	353.336	11379.282	11641.403
837.968	226.267	95.026	10.796	178.630	8402.806	8554.211
945.857	287.409	101.969	8.691	155.515	9449.571	9559.341
940.730	211.398	89.520	11.013	167.662	11610.586	11828.430
780.217	290.933	96.909	7.483	327.581	6858.383	6917.288
860.763	365.992	103.285	20.628	260.368	5074.149	5421.764
797.886	354.647	92.719	6.384	311.076	11222.970	11292.991
905.114	1015.541	134.357	52.577	184.319	6501.651	10698.809
947.827	1069.590	175.494	34.800	154.115	10729.133	13065.929
1023.770	993.321	158.844	33.845	265.406	4246.566	5112.958
1033.578	1051.798	168.625	33.822	265.163	5146.783	6195.206
965.036	965.148	108.473	45.217	257.261	2994.313	4250.723
187.542	451.456	195.058	18.270	306.170	4541.024	4782.095
210.880	396.433	215.360	23.079	316.266	4344.503	4722.461
152.174	330.613	216.559	23.590	311.825	6781.818	7400.215
128.836	385.637	196.257	15.891	321.724	5781.048	6010.760
967.749	416.470	100.321	15.886	21.094	7470.404	7767.044
1011.795	329.188	97.555	9.193	110.712	17991.627	18225.706
876.565	427.735	98.706	19.524	342.444	4979.958	5283.766
507.247	353.268	171.442	30.525	81.921	6170.956	7163.802
471.851	288.001	200.630	35.355	81.452	7607.458	9327.633
445.951	475.418	187.620	10.510	72.660	5806.124	5905.201
504.176	445.897	170.086	29.706	96.964	2940.520	3385.438
585.837	328.107	138.132	22.990	74.926	16634.456	18069.654
566.294	480.788	135.786	30.830	95.564	7796.200	9079.153
635.697	426.902	105.692	23.658	72.579	13629.668	14880.205
447.586	533.281	185.040	10.200	82.211	6020.408	6117.082
878.376	634.900	47.392	30.646	29.846	5328.386	6193.375
818.056	644.720	53.934	30.449	8.216	4595.649	5330.861
803.952	687.741	37.091	20.065	44.440	3486.390	3711.679
915.828	685.195	34.087	16.697	270.385	5142.207	5368.571
864.420	759.716	47.912	25.481	182.005	7263.321	8045.967
812.864	752.442	44.374	24.439	177.262	4209.951	4624.294
89.302	497.562	184.122	18.601	65.628	4214.067	4446.338
132.885	699.920	177.691	21.826	291.666	10275.266	11068.667
134.025	627.863	183.834	23.013	260.317	4689.620	5095.108
407.494	961.202	174.817	9.337	337.268	5931.657	6011.309
354.844	936.435	181.863	16.345	54.641	4037.002	4207.025
321.676	995.970	170.645	17.947	6.531	5436.706	5714.761
363.763	1080.116	173.301	14.744	242.109	9722.571	10053.617
426.832	1059.254	180.553	11.235	205.833	8534.682	8701.428
403.283	557.781	187.201	12.847	3.212	4312.740	4423.475
107.969	444.014	186.762	15.394	58.915	6835.942	7090.332
152.692	574.314	186.474	22.752	254.596	5982.555	6487.356
196.220	872.085	166.207	13.582	289.228	11457.332	11786.955
139.596	1017.802	148.165	10.133	341.864	4791.435	4867.356
203.521	1032.729	150.082	9.833	334.658	8808.729	8940.049
266.873	980.569	169.330	19.016	319.571	6538.035	6915.425
267.412	911.227	181.297	16.899	275.235	4197.439	4386.862
1225.110	541.679	162.596	24.366	237.101	6834.382	7502.650
1283.291	551.114	183.221	17.083	243.961	7942.235	8308.830
1247.926	470.638	164.896	19.864	297.170	4527.934	4814.379
1280.951	430.750	177.343	11.270	273.618	3996.347	4074.919
1397.934	475.779	202.016	16.878	235.367	6771.509	7076.318
1372.777	426.456	193.838	9.748	273.079	10363.142	10514.957
486.207	736.527	167.653	11.441	32.526	2727.108	2782.394
497.455	799.818	163.620	6.269	100.852	5278.085	5309.834
392.109	799.345	181.326	11.936	94.197	7125.092	7282.541
419.630	736.639	178.800	15.530	49.305	3740.264	3881.993
444.088	841.070	172.619	9.904	103.480	7239.440	7348.963
262.443	674.641	213.115	11.477	349.522	4299.056	4386.770
198.079	731.187	188.873	18.495	324.438	12406.593	13082.263
1282.116	635.787	197.248	19.334	238.378	19411.408	20571.531
1354.935	676.416	220.458	6.548	204.426	7535.360	7584.835
737.136	558.038	63.330	15.242	98.129	8662.541	8978.366
752.583	490.696	72.060	36.445	28.465	4541.083	5645.108
724.256	436.001	85.342	1.383	295.910	10976.364	10979.562
664.550	1245.159	166.245	4.288	351.686	8087.203	8109.904
408.097	1274.050	160.089	44.441	358.298	2422.055	3392.391
626.579	1176.128	160.185	8.305	221.810	16922.969	17102.332
528.327	1173.120	170.481	19.568	84.798	13897.393	14749.208
479.983	1237.855	179.343	18.133	13.700	3332.835	3507.011
299.631	788.608	192.158	7.550	41.570	3090.127	3117.153
334.195	830.655	188.042	2.879	9.204	5457.823	5464.720
302.684	716.632	203.643	12.964	21.145	3838.455	3938.848
364.768	695.973	197.000	14.704	50.635	9037.554	9343.555
507.308	959.998	165.614	10.101	98.750	4938.396	5016.141
559.468	921.386	153.518	12.645	102.652	7557.433	7745.297
543.805	1021.623	159.266	10.208	76.288	2945.246	2992.615
643.695	956.431	210.902	51.000	231.824	10952.492	17403.794
636.901	1018.579	214.058	50.163	312.400	6948.352	10846.496
501.711	648.658	163.480	24.289	80.541	4846.582	5317.265
436.082	622.044	179.490	2.392	73.182	5630.546	5635.456
1085.993	545.859	131.600	42.518	146.210	8462.084	11480.837
1053.552	604.430	163.589	6.958	150.009	10369.760	10446.705
1058.790	470.214	108.869	42.603	89.244	3658.689	4970.603
1003.353	465.805	113.874	38.246	201.936	6858.584	8733.074
980.037	597.571	123.972	64.746	263.667	3848.394	9020.469
957.042	534.591	96.988	52.386	289.731	5258.875	8616.257
373.867	636.369	194.051	22.331	124.880	7058.046	7630.259
794.401	581.331	63.062	26.366	242.586	4019.345	4485.988
899.353	557.258	71.610	24.489	45.928	7805.387	8576.990
850.896	522.689	73.241	25.577	240.001	6553.685	7265.667
1188.254	737.785	175.691	22.128	264.568	19048.566	20563.185
1083.759	708.526	158.069	8.456	37.738	16079.022	16255.756
1151.881	538.522	127.012	32.519	241.413	7462.742	8850.354
1133.424	434.617	111.755	31.945	301.688	5376.379	6335.903
1174.697	467.482	129.312	33.030	275.668	4908.896	5855.206
842.015	471.086	74.858	30.577	344.682	4380.269	5087.726
218.900	804.512	178.000	14.892	296.513	8761.144	9065.653
1082.728	1144.238	194.150	25.238	278.304	7240.811	8004.903
1125.371	1106.584	205.813	4.930	279.145	10396.239	10434.848
1087.901	992.351	186.924	24.623	214.353	5274.498	5802.099
522.440	703.513	156.807	21.744	111.411	4610.795	4963.979
546.640	815.827	149.598	24.548	77.689	5033.499	5533.687
575.333	857.141	142.536	17.218	135.601	4920.964	5151.855
671.535	841.210	114.950	19.893	131.166	6518.789	6932.444
687.679	781.232	95.958	20.209	131.969	10519.353	11209.443
606.076	755.327	121.104	29.343	95.212	5030.002	5770.304
1114.702	941.504	181.406	21.123	237.964	9238.452	9903.894
1233.571	1118.340	210.230	2.184	306.020	35877.332	35903.403
1293.436	1012.145	209.086	10.681	171.041	9446.696	9613.245
1212.038	949.543	199.150	11.573	173.120	7880.916	8044.456
996.496	804.762	61.351	49.560	299.840	6119.261	9433.790
1011.705	746.044	118.801	53.880	304.221	9340.737	15845.828
893.184	803.772	41.664	34.251	48.669	7119.769	8613.479
959.801	670.532	85.289	66.786	271.692	3735.212	9476.130
87.465	1060.399	140.107	7.383	13.278	2348.857	2368.492
593.123	706.303	124.280	28.709	100.986	5949.321	6783.143
976.088	147.817	97.308	28.052	341.650	8179.221	9268.056
324.656	885.702	188.974	7.811	154.048	3045.849	3074.372
448.704	920.860	174.620	9.760	99.572	6668.371	6766.297
1018.519	869.362	96.078	51.631	228.043	7556.758	12174.039
1090.672	887.216	158.397	28.299	225.866	5592.243	6351.306
1190.854	821.656	184.647	28.004	245.802	8411.156	9526.618
750.789	1203.072	187.697	40.551	266.821	2800.790	3686.113
789.699	1105.879	202.077	39.369	239.957	2843.214	3677.787
757.350	1137.437	184.526	44.007	257.284	3445.508	4790.414
720.061	901.946	185.764	59.682	185.174	11306.901	22398.733
957.193	907.255	66.287	52.739	233.588	5734.248	9471.151
497.743	148.103	195.918	35.363	82.811	9030.228	11073.223
740.581	688.872	57.504	23.665	60.900	4346.044	4745.060
749.493	753.574	64.788	33.736	130.870	6453.968	7760.817
829.927	1010.268	204.712	59.895	98.048	9691.145	19321.260
814.958	925.420	157.577	63.135	132.066	11726.672	25950.066
882.302	872.800	45.036	29.206	118.786	9998.783	11455.078
772.768	1052.338	238.944	65.276	332.236	4121.935	9855.323
203.256	1165.177	140.924	8.348	267.174	16825.642	17005.807
169.702	1096.996	138.275	8.314	327.608	5506.053	5564.531
313.657	1173.436	166.145	16.365	261.282	21011.693	21898.877
52.919	1130.510	121.338	24.204	327.295	3572.083	3916.376
93.495	1105.583	133.758	8.515	12.164	2439.021	2466.205
109.746	1196.635	123.555	14.928	288.544	7332.609	7588.733
1342.205	1193.633	204.604	7.509	19.077	30998.341	31266.461
1463.290	1087.796	213.943	8.058	4.634	10091.008	10191.635
1399.541	999.718	215.868	9.766	275.489	9946.222	10092.463
698.095	1045.047	213.047	63.642	353.802	6056.142	13640.708
692.689	1110.477	157.661	9.418	198.589	7138.529	7236.070
1388.361	893.872	220.186	10.748	295.234	19194.958	19537.679
1329.988	819.917	218.209	8.061	322.412	7559.561	7634.996
504.539	1080.537	174.009	15.829	114.481	13240.287	13762.172
373.747	1240.845	173.318	20.366	346.602	10581.610	11287.182
570.961	113.827	162.381	18.606	86.127	13905.403	14672.236
1259.769	863.159	203.955	10.939	304.476	15142.397	15422.621
1511.909	902.668	204.269	51.496	85.194	11208.601	18003.934
						
Total plan area (mm^2)	1744937.405					
Total 3D area (mm^2)	1972773.082					
						
Slope bitmap	Double click to view	Darkest: 0 degree slope	Brightest: 90 degree slope			
Slope direction bitmap	Double click to view	0 deg = red, 120 deg = green, 240 deg = blue				
Surface bitmap	Double click to view	Darkest: z = 0.000 (mm)	Lightest: z = 337.622 (mm)			
