Surface analysis

Generated: Wednesday 07 July 2021 18:03:11

						
Left filename	Left2_2m.jpg					
Left frame number	      0					
Plane definition points	213					
RMS plane fit (mm)	83.259					
X plane direction (unit vector)	[0.9965, -0.0000, 0.0839]					
Y plane direction (unit vector)	[-0.0049, 0.9983, 0.0579]					
Z plane direction (unit vector)	[-0.0838, -0.0581, 0.9948]					
Plane shift (mm)	[-1402.1682, -839.5778, -2016.5303]					
						
Transformed coordinates						
X (mm)	Y (mm)	Z (mm)				
2212.861	936.931	190.148				
579.602	546.968	303.808				
604.314	1391.715	419.411				
1306.814	704.168	181.127				
1614.537	1279.407	88.122				
1155.988	203.335	182.103				
1761.379	194.361	286.046				
451.277	1018.998	143.317				
302.076	805.793	254.853				
0.000	427.784	183.823				
1673.627	722.020	227.465				
715.200	1203.533	134.251				
578.070	133.875	33.300				
1395.751	1482.913	75.076				
1085.830	872.348	300.100				
740.935	837.722	227.422				
45.777	1089.200	47.904				
1973.085	1319.915	51.410				
1397.017	274.957	224.790				
1938.364	394.105	303.696				
1030.563	554.525	189.170				
1410.211	1073.207	168.039				
1819.793	748.188	226.169				
357.781	599.660	364.058				
48.980	18.083	176.870				
987.833	1255.761	282.247				
1651.757	1047.866	161.135				
2014.333	0.000	261.603				
2010.636	1114.789	277.832				
1501.084	919.984	156.072				
581.487	325.240	121.676				
844.091	1415.629	315.799				
269.732	300.709	118.814				
1171.020	1423.700	211.524				
192.028	757.911	291.380				
1078.257	1390.989	237.136				
668.027	1340.306	382.212				
574.693	1311.650	386.317				
759.103	1402.280	370.760				
1808.801	292.198	353.175				
1237.374	1349.377	180.728				
500.525	703.317	281.644				
2026.039	918.112	130.799				
1672.902	1156.608	88.922				
1174.301	891.922	220.798				
303.630	404.354	194.931				
1707.609	1357.833	64.768				
1829.234	1347.340	62.051				
1070.839	1275.477	228.024				
739.554	1288.415	273.342				
1493.214	377.701	226.358				
1451.132	1287.033	146.399				
2119.075	538.505	174.502				
1574.708	1191.287	118.076				
1221.372	527.685	199.427				
1083.841	1126.208	326.680				
1757.388	125.182	323.642				
625.944	1202.476	172.843				
1767.419	1235.483	68.909				
428.026	1147.222	155.570				
1137.841	310.783	157.237				
983.186	642.286	231.101				
1491.495	1191.244	92.915				
662.339	692.311	266.782				
161.976	860.788	251.561				
1163.608	1125.937	341.733				
1461.834	766.880	179.004				
1121.283	471.976	154.858				
1246.240	222.600	223.754				
1286.089	1445.103	135.409				
1876.278	1155.361	124.906				
697.051	206.380	65.043				
1221.189	773.292	222.709				
1521.527	598.546	201.662				
2184.314	811.274	187.185				
859.865	1292.488	317.340				
1899.824	1070.662	127.088				
902.882	1027.237	280.472				
2167.860	726.311	177.948				
1803.014	455.223	310.087				
1601.602	462.873	261.567				
350.349	1007.615	101.882				
1266.059	995.897	258.940				
122.257	984.256	166.437				
270.640	987.879	119.917				
992.935	974.142	322.046				
1096.775	983.054	252.058				
1841.083	979.650	132.923				
446.694	434.988	321.501				
1959.059	253.671	231.821				
2100.573	951.256	239.236				
404.803	308.111	202.267				
444.438	916.886	187.066				
638.080	914.409	221.507				
1894.148	930.182	235.026				
1975.025	1177.762	98.584				
1262.938	913.466	260.446				
367.331	901.428	207.506				
917.783	147.574	0.000				
1444.199	506.433	222.511				
1157.326	1322.922	245.031				
270.680	1214.491	41.563				
1559.403	733.082	170.960				
1797.851	869.635	175.368				
1715.368	853.485	172.665				
180.857	1198.876	59.210				
525.555	824.220	192.337				
1620.202	829.208	164.147				
1753.132	284.569	265.713				
445.977	799.970	220.267				
865.716	333.971	55.253				
1181.173	1034.011	336.443				
1136.812	792.298	295.166				
1287.482	1072.339	297.410				
851.332	783.010	337.948				
305.475	1113.177	88.589				
1962.225	771.554	176.352				
882.573	469.657	178.601				
1025.755	364.466	192.153				
633.101	812.408	186.188				
1279.773	1233.163	120.115				
418.082	715.345	291.355				
1233.181	295.497	150.061				
1081.540	693.306	227.562				
567.174	700.483	236.143				
1360.188	1174.498	156.103				
1792.137	1075.931	110.283				
747.070	683.553	192.413				
1991.588	464.292	242.256				
115.384	563.568	284.706				
889.484	658.064	217.743				
45.509	333.618	170.147				
1821.129	663.712	236.078				
1651.366	257.601	281.708				
464.400	530.772	342.153				
965.240	1136.652	344.793				
529.059	1167.737	175.165				
1984.088	1057.323	137.758				
1438.854	606.317	209.083				
108.684	247.109	186.552				
189.561	1088.637	107.816				
466.005	261.454	61.014				
894.213	572.029	193.863				
200.767	292.132	181.592				
777.283	449.456	267.276				
1359.735	792.325	140.913				
1928.132	569.254	268.343				
2110.850	852.522	159.085				
538.168	905.357	162.940				
1190.781	1241.942	247.238				
661.697	538.012	288.810				
732.881	1001.653	266.529				
863.720	920.543	253.556				
328.789	497.951	252.356				
912.500	738.034	229.710				
761.512	925.828	261.861				
206.807	477.617	191.797				
1695.095	514.359	284.882				
251.983	169.727	86.671				
1526.746	513.226	228.751				
77.605	448.055	164.322				
987.720	458.319	217.321				
196.941	678.253	271.751				
1404.545	685.717	202.791				
214.327	60.704	183.058				
569.726	456.181	301.644				
2053.591	744.818	198.697				
1633.778	352.411	274.536				
826.940	1002.636	297.690				
167.299	371.276	148.750				
654.829	1268.004	338.758				
1724.079	437.588	301.893				
1205.396	394.366	150.038				
1868.383	1258.827	69.928				
786.982	1093.568	239.717				
989.673	790.958	200.157				
309.530	728.912	270.758				
397.987	1241.448	303.466				
610.135	1045.752	241.265				
800.278	534.174	234.484				
1499.179	1419.322	62.303				
734.778	309.700	98.436				
880.592	1117.200	326.587				
970.699	1396.213	319.491				
635.570	440.442	249.893				
837.499	1231.352	132.344				
1899.809	658.613	245.909				
1708.262	588.589	257.815				
1617.462	594.613	242.791				
700.379	1095.397	226.739				
1315.436	299.416	192.358				
2074.754	359.982	203.754				
1812.308	383.393	340.223				
212.488	905.033	190.673				
486.608	625.529	326.708				
808.274	188.441	16.714				
1555.573	269.685	265.770				
2.706	626.794	121.137				
1327.407	1363.447	125.495				
345.693	162.697	33.812				
518.407	1242.808	309.288				
2055.447	661.081	229.856				
352.366	93.400	101.893				
2113.586	454.080	187.131				
477.157	152.827	5.144				
195.772	145.639	155.588				
1467.371	204.511	270.529				
220.661	585.652	248.632				
58.376	102.265	180.935				
2003.570	135.177	260.705				
1475.346	289.490	253.966				
1912.512	115.230	266.359				
1166.043	631.470	239.228				
						
Triangle data						
X centre (mm)	Y centre (mm)	Z centre (mm)	Slope (deg)	Direction (deg)	Plan area (mm^2)	3D area (mm^2)
1231.349	702.977	214.355	23.970	97.115	7977.745	8730.694
1231.410	621.108	206.594	26.371	104.983	9316.195	10398.318
1128.132	705.691	253.985	31.985	226.472	5891.402	6945.885
1174.681	732.353	252.368	39.959	103.804	6507.278	8489.589
1092.715	626.434	218.653	17.852	236.434	7439.740	7816.062
1105.963	552.657	194.419	27.138	189.222	9082.085	10205.612
1169.566	543.711	197.838	27.072	200.476	6735.094	7563.811
1958.380	168.026	252.962	13.869	1.865	5838.858	6014.200
1810.426	144.924	292.016	33.339	37.739	5385.476	6446.323
1976.805	83.469	262.889	3.472	79.182	6261.849	6273.366
1894.744	80.137	283.868	26.211	52.137	8430.838	9397.093
1827.564	200.596	301.860	32.001	196.993	9269.518	10930.502
1893.457	220.367	283.785	38.754	91.450	11297.521	14486.893
1455.192	314.049	235.038	31.070	312.055	3324.932	3881.818
1508.044	312.292	248.698	18.427	348.478	3715.427	3916.215
1446.578	256.319	249.762	25.509	299.357	3270.199	3623.418
1499.430	254.562	263.422	12.723	334.618	3487.780	3575.573
2030.886	165.053	242.020	32.008	84.841	6021.043	7100.514
2012.461	249.610	232.093	14.001	3.182	9220.632	9502.932
35.785	182.710	180.543	7.940	256.244	3986.482	4025.069
34.628	287.889	178.302	24.433	80.934	4658.496	5116.712
120.944	165.004	174.358	14.000	117.602	8859.476	9130.701
156.158	102.869	173.194	19.233	12.762	6237.299	6605.999
107.228	60.350	180.288	2.988	209.520	6759.361	6768.561
70.857	227.664	179.211	12.123	279.335	6751.344	6905.348
180.950	542.279	241.712	36.805	141.525	5533.836	6911.463
177.662	609.158	268.363	22.055	112.284	5136.300	5541.830
295.991	638.075	294.483	43.990	293.999	9199.485	12786.570
242.378	664.272	263.714	13.875	153.908	5813.722	5988.446
302.411	561.088	288.349	49.243	220.366	6770.147	10370.127
252.086	520.407	230.928	32.238	221.475	6448.350	7623.614
1558.103	243.932	272.669	16.061	332.206	3654.511	3802.958
1625.375	195.765	291.960	14.056	330.421	14996.537	15459.381
1370.209	234.022	239.691	26.896	340.118	7152.570	8020.095
1289.866	210.148	225.462	41.733	198.347	2946.270	3948.064
1460.249	177.676	258.758	24.728	217.853	12521.334	13785.417
220.694	125.357	141.772	48.539	61.466	2610.633	3942.863
168.408	228.294	174.577	13.050	141.895	6632.306	6808.142
216.174	202.500	141.284	53.268	99.561	4057.112	6783.568
469.198	126.701	46.779	57.798	0.692	4181.018	7845.715
391.739	136.308	46.950	46.469	16.215	4522.146	6565.736
429.618	192.326	33.323	27.821	159.960	7085.243	8011.295
507.078	182.719	33.153	33.949	214.673	5375.252	6479.804
2133.507	572.965	179.860	41.559	283.414	1543.848	2063.221
2067.558	271.354	217.496	9.276	23.504	4146.571	4201.508
2059.976	426.118	211.047	24.283	91.205	5938.170	6514.534
2074.750	485.626	201.297	25.505	75.486	5177.856	5736.936
616.073	124.950	45.064	55.983	1.481	5329.091	9525.790
494.825	100.559	94.984	70.930	358.082	5504.266	16846.931
272.892	107.944	123.874	40.317	29.070	6909.145	9061.515
316.681	141.941	74.125	50.799	31.598	3223.449	5100.085
2092.299	710.737	202.167	24.170	32.740	4767.091	5225.157
2114.127	641.966	194.102	30.097	106.317	8964.805	10361.773
2034.218	589.613	224.234	26.782	115.136	10724.249	12012.862
1972.494	697.083	217.372	29.753	9.485	8711.924	10034.809
2023.754	725.818	201.635	21.482	339.696	3800.549	4084.260
1961.129	629.649	248.036	16.650	19.263	6988.774	7294.629
573.015	1252.311	289.483	60.585	158.506	4836.614	9847.843
557.803	1204.340	219.099	61.092	159.561	3821.695	7905.709
448.140	1210.493	256.108	57.663	181.107	5693.814	10644.728
491.830	1185.922	213.341	60.548	174.683	3901.603	7934.937
497.029	1265.302	333.024	47.467	181.895	4106.710	6074.935
289.136	211.044	79.766	32.093	120.532	6199.478	7317.739
340.076	257.172	118.298	47.400	211.425	9601.847	14185.444
405.500	244.087	99.031	62.673	145.801	5828.783	12697.083
1283.623	1385.976	147.211	31.455	73.361	3966.520	4649.786
1336.416	1430.488	111.993	27.542	75.149	5258.402	5930.499
1407.446	1421.894	87.625	21.032	47.464	8351.021	8947.096
1425.906	1356.601	111.399	30.877	17.790	10019.519	11674.073
1352.771	1294.548	130.670	9.063	276.011	9879.722	10004.628
1281.518	1315.329	142.113	35.576	113.192	5529.798	6798.835
56.913	900.083	111.826	50.466	282.800	19942.526	31329.915
95.646	823.946	179.712	51.938	283.092	14479.298	23485.922
130.558	687.653	228.089	37.101	247.494	7862.630	9858.192
105.010	622.872	225.865	52.140	309.522	9039.510	14728.654
118.903	748.498	221.359	44.315	276.082	11708.711	16364.015
26.770	500.878	156.427	19.582	28.476	7694.610	8166.942
65.231	546.139	190.055	60.758	254.431	7702.198	15766.975
1560.855	333.266	255.555	19.851	301.077	6803.066	7232.865
1613.572	293.232	274.005	9.482	285.937	4434.776	4496.200
768.043	156.630	16.671	9.519	141.954	7691.598	7798.994
694.465	176.232	38.353	43.664	162.453	5099.254	7049.037
802.923	277.371	56.801	30.564	136.192	8830.563	10255.396
863.925	223.329	23.989	16.023	170.601	9142.133	9511.651
746.701	234.840	60.065	30.154	141.566	6084.194	7036.385
544.461	624.327	288.886	39.623	53.323	6649.810	8633.217
518.102	676.443	281.498	39.891	57.124	2611.982	3404.262
510.203	567.756	324.223	18.383	74.665	5278.282	5562.117
420.824	646.845	327.373	29.407	18.932	6671.694	7658.437
468.405	681.397	299.902	30.056	19.921	3290.222	3801.387
436.263	585.320	344.306	16.052	69.717	5816.350	6052.334
165.574	916.693	202.891	43.907	29.179	3996.970	5547.751
201.795	959.056	159.009	35.392	24.779	6041.062	7410.487
293.965	870.752	217.678	29.617	350.312	7521.847	8652.265
283.486	931.447	172.699	42.601	354.546	6518.879	8856.134
225.513	857.205	232.363	45.914	20.218	4488.323	6451.214
1779.800	425.401	317.401	23.698	334.059	2916.889	3185.493
1791.414	320.053	319.704	58.185	277.253	2525.015	4789.664
1763.173	368.517	302.610	36.832	241.182	5963.117	7450.182
1851.229	410.907	318.002	27.350	29.074	4577.062	5153.090
1853.158	356.566	332.365	17.119	64.765	5729.023	5994.610
2001.569	406.126	249.902	40.162	71.433	5694.497	7451.334
1990.726	335.919	246.424	37.053	123.735	9223.842	11557.505
1417.616	394.517	213.742	10.142	258.139	13361.376	13573.454
1401.889	317.358	214.502	22.774	311.594	5367.439	5821.281
1251.338	329.760	164.152	27.791	254.328	4120.659	4657.914
1321.677	400.072	188.302	18.654	280.390	17503.121	18473.616
1319.564	265.657	213.634	32.676	340.271	3979.623	4727.887
1264.952	272.504	188.724	46.887	328.530	3023.704	4424.219
645.486	1114.541	213.616	24.364	349.328	6679.309	7332.305
680.508	1167.135	177.945	42.068	27.943	4818.036	6490.238
740.081	1063.539	244.328	21.860	339.282	4029.537	4341.721
681.132	1047.600	244.844	22.191	351.410	5036.733	5439.635
734.187	1130.833	200.236	41.449	351.443	4696.030	6265.147
1666.451	635.074	242.690	13.615	320.820	5953.421	6125.548
1616.831	683.238	213.739	29.493	305.011	7587.106	8716.650
1566.131	642.080	205.138	28.338	309.760	6527.819	7416.607
1581.937	523.570	244.370	20.039	299.691	5330.066	5673.555
1638.053	523.948	263.080	21.643	297.756	5750.121	6186.263
1555.245	568.795	224.401	26.970	305.018	4082.350	4580.501
1673.607	565.854	261.830	22.474	340.273	3409.711	3689.943
1734.340	658.107	240.453	13.451	8.446	8830.951	9080.022
1735.457	519.390	284.262	20.373	355.248	4394.738	4687.994
1777.468	569.175	267.994	19.900	352.642	11085.380	11789.322
1883.024	630.526	250.110	13.644	332.798	3443.183	3543.165
1846.911	690.171	236.052	9.352	314.500	3319.869	3364.593
1893.942	726.119	216.143	28.335	30.481	7314.044	8309.629
894.444	1161.735	267.908	57.865	339.492	5250.514	9870.916
835.024	1147.373	232.883	60.238	314.867	5852.016	11789.071
779.894	1176.151	168.771	40.767	348.196	7722.807	10196.903
930.191	1207.922	253.128	53.227	303.421	8677.363	14494.867
895.066	1259.867	243.977	70.851	190.762	4322.459	13177.256
764.084	1241.100	179.979	61.030	166.703	4851.743	10016.943
812.306	1270.752	241.009	71.218	185.201	3632.150	11281.215
691.516	475.970	268.660	21.071	194.886	6795.704	7282.639
715.877	399.866	205.202	50.072	182.241	9711.073	15130.444
594.966	481.197	285.115	37.521	97.977	3066.618	3866.471
625.623	508.474	280.837	24.494	162.733	4121.969	4529.614
650.612	358.460	156.669	48.517	178.124	9249.984	13964.293
595.594	407.288	224.404	54.694	160.668	4218.306	7298.850
1009.791	1309.150	276.587	35.717	104.519	5998.097	7387.628
1039.932	1354.226	261.551	37.601	99.541	6231.535	7865.345
995.270	1411.847	282.272	63.133	7.882	3684.681	8153.400
1073.326	1403.634	256.051	54.656	149.934	2001.412	3459.720
939.466	1314.821	306.359	17.533	139.469	8672.040	9094.557
891.552	1368.110	317.544	1.672	287.851	7642.183	7645.439
916.238	1093.696	317.284	28.513	189.755	4024.390	4579.911
870.138	1049.024	301.583	29.136	139.286	3690.157	4224.738
831.504	1071.134	287.998	45.052	281.914	4728.183	6692.687
792.592	364.376	140.322	56.409	157.061	8633.891	15605.488
671.105	280.440	95.052	20.937	162.571	8212.165	8792.738
1521.616	1328.587	98.941	32.052	37.351	10991.554	12968.370
1534.180	1420.023	67.382	23.973	197.898	3447.227	3772.678
1607.108	1352.188	71.731	13.372	13.701	11034.614	11342.128
736.348	585.246	238.569	30.395	43.503	10248.489	11881.518
746.419	507.214	263.523	25.977	55.127	5914.279	6578.932
820.045	484.429	226.787	39.597	78.340	4227.723	5486.682
859.022	525.287	202.316	29.092	111.926	4587.879	5250.259
861.325	588.089	215.363	30.436	114.999	4130.367	4790.516
812.277	625.264	214.880	15.109	329.719	9958.772	10315.334
533.193	990.036	182.507	32.222	245.169	10188.739	12043.596
595.461	955.172	208.571	31.932	244.334	6687.812	7880.318
530.157	1077.496	186.582	32.926	280.568	10773.635	12835.277
588.379	1138.655	196.424	25.219	343.020	7317.562	8088.537
660.365	987.271	243.100	19.355	233.227	7444.783	7890.752
424.327	1282.551	254.813	75.753	317.311	6784.018	27565.331
525.664	1314.938	369.731	24.445	231.786	6034.201	6628.370
377.162	1167.282	182.541	58.078	183.627	6285.109	11886.245
324.714	1189.705	144.539	63.686	263.585	6917.953	15605.804
343.229	750.017	272.322	14.188	318.991	4122.255	4251.962
361.798	681.306	308.723	34.637	351.308	6687.979	8128.612
232.833	721.692	277.963	14.900	154.042	4608.746	4769.094
267.878	764.206	272.330	18.073	45.340	4408.774	4637.579
948.776	895.214	258.586	35.324	201.170	11747.598	14398.404
1022.813	879.149	274.101	39.199	216.356	8674.458	11193.418
1070.772	818.535	265.141	38.495	233.760	5923.385	7568.213
1069.342	758.854	240.962	35.747	243.246	7245.767	8927.716
917.835	770.667	255.938	55.127	132.843	3354.112	5866.249
901.575	831.504	263.887	47.727	61.397	9464.061	14069.434
961.787	723.760	220.323	17.569	51.448	5565.063	5837.365
1018.133	708.850	219.607	12.616	340.787	7145.757	7322.549
782.268	1032.619	267.979	30.716	325.512	4296.096	4997.153
1890.234	1308.694	61.130	9.421	36.767	5829.498	5909.200
1837.360	1216.557	87.914	28.259	345.933	5315.313	6034.513
1821.679	1280.550	66.963	4.664	340.055	4925.247	4941.608
1938.831	1252.168	73.307	18.369	357.131	7501.100	7903.809
1906.562	1197.317	97.806	29.292	14.824	5196.951	5958.861
1290.322	476.161	190.658	20.792	201.207	15023.330	16069.917
1192.139	333.549	152.445	4.686	74.144	4500.686	4515.783
1154.840	392.375	154.044	4.665	73.769	6136.662	6157.060
1182.684	464.676	168.107	23.051	217.017	6226.918	6767.222
1653.153	417.624	279.332	18.021	274.032	6357.739	6685.736
1673.592	471.606	282.781	18.008	288.937	4334.904	4558.183
1740.729	469.056	298.954	12.393	319.947	3285.505	3363.885
1703.663	358.189	280.714	14.486	195.211	8146.205	8413.694
618.489	1260.710	299.306	66.861	195.706	3255.932	8285.703
632.516	1306.654	369.096	34.571	159.434	3185.021	3868.041
687.470	1298.909	331.437	50.973	128.980	2928.194	4650.283
665.324	1224.671	215.284	70.190	170.361	2909.109	8583.715
703.194	1253.318	248.784	67.027	147.901	3347.266	8576.076
212.599	321.372	149.719	48.110	47.029	2872.552	4302.165
246.887	358.779	154.165	34.971	194.438	6504.394	7937.572
158.917	303.506	172.298	20.966	341.198	4397.324	4709.111
107.164	317.334	168.483	15.450	20.212	6457.453	6699.557
225.912	417.749	178.493	22.039	220.769	6595.365	7115.302
150.570	432.316	168.290	20.780	200.225	6285.774	6723.112
96.804	384.316	161.073	9.934	89.418	6364.322	6461.202
817.391	949.669	271.036	27.294	173.913	4098.057	4611.478
773.778	976.705	275.360	20.717	240.554	3580.048	3827.548
864.514	983.472	277.240	27.350	137.405	3569.570	4018.800
1576.198	397.662	254.154	18.774	273.127	7356.622	7770.014
1679.425	298.193	273.986	9.342	52.610	5061.378	5129.406
2110.767	774.550	178.576	18.478	41.638	6683.429	7046.725
2042.222	789.631	178.045	24.074	344.619	5685.667	6227.341
537.909	511.307	315.868	19.128	100.127	5149.477	5450.396
493.606	473.981	321.766	18.060	141.032	5704.618	6000.236
532.635	405.470	248.274	54.373	163.682	8179.631	14042.229
393.697	75.454	119.976	66.319	166.456	7809.187	19442.851
1357.031	727.403	174.943	28.506	347.044	4796.006	5457.628
1408.704	748.307	174.236	28.262	331.665	4872.151	5531.572
1383.404	665.401	197.667	12.724	265.423	3563.421	3653.130
1475.261	728.560	184.252	13.481	38.069	4927.651	5067.278
1454.975	630.194	204.512	9.055	39.475	3148.871	3188.609
1495.159	672.449	191.804	13.406	38.552	9520.019	9786.681
1046.522	494.940	187.116	25.036	79.093	6132.227	6768.147
1044.919	431.587	188.111	25.704	99.025	6527.312	7244.142
970.832	528.291	200.118	15.162	14.553	6933.818	7183.896
921.502	500.002	196.595	21.513	254.413	5448.081	5856.039
959.730	385.585	154.909	43.223	232.605	8089.941	11102.019
912.003	420.649	150.392	44.075	208.373	7229.031	10062.264
41.038	403.152	172.764	14.449	94.703	4115.127	4249.541
133.265	496.413	213.609	46.442	178.480	6903.833	10018.876
1488.053	465.787	225.873	4.329	270.808	5479.697	5495.373
1540.521	451.266	238.892	21.494	281.403	5916.622	6358.846
1497.491	539.402	217.641	18.126	341.989	3539.215	3724.011
240.827	254.189	129.026	45.786	111.403	4440.415	6367.631
279.742	459.974	213.028	33.036	219.389	5452.805	6504.409
713.509	892.653	236.930	23.644	222.752	5320.107	5807.607
710.824	947.296	249.966	19.707	240.060	4843.111	5144.420
788.723	894.698	247.613	22.266	171.529	4556.936	4924.094
928.390	679.462	226.185	10.792	237.078	3928.227	3998.951
884.439	726.369	261.800	55.840	111.657	2963.401	5277.561
383.657	542.794	319.522	46.820	203.548	6420.635	9382.856
413.294	487.904	305.337	32.861	261.312	6204.054	7385.895
359.704	445.764	256.262	41.772	243.493	6309.792	8460.475
818.662	847.092	272.975	43.478	315.275	7930.483	10929.021
919.846	973.974	285.358	26.858	262.273	5843.752	6550.331
634.546	592.430	286.466	13.700	54.390	6336.400	6521.947
690.368	637.959	249.335	42.077	81.141	6539.749	8810.812
1139.649	1280.113	240.097	10.095	255.685	4295.438	4362.978
1211.387	1200.348	236.362	57.131	72.354	5281.029	9730.564
1146.077	1164.696	305.217	41.283	347.782	4630.326	6161.748
1115.154	1214.542	267.314	33.568	2.177	8733.744	10481.839
1235.976	1274.827	182.693	55.005	90.017	4984.926	8692.122
1195.160	1304.747	224.332	37.488	65.671	3683.689	4642.427
477.961	947.080	164.441	27.059	37.021	4824.942	5418.007
502.720	882.154	180.781	23.431	43.135	3875.206	4223.473
603.116	877.391	190.212	32.707	240.208	5072.980	6028.880
565.608	847.328	180.489	19.816	15.342	4437.428	4716.728
2033.038	847.396	155.412	19.198	348.457	8307.592	8796.814
2154.341	796.702	174.739	21.864	265.534	3460.212	3728.381
2079.154	907.296	176.373	54.327	228.635	3849.806	6601.686
2141.428	913.570	196.156	40.264	156.475	5469.750	7168.076
2169.342	866.909	178.806	19.567	279.089	5204.415	5523.386
1850.759	562.730	271.503	19.504	1.778	12010.053	12741.160
2012.932	524.017	228.367	26.703	83.857	9045.286	10125.165
1952.695	475.884	271.432	40.752	73.134	5020.157	6626.931
1889.837	472.861	294.042	14.235	34.068	11540.495	11906.072
1295.913	756.595	181.583	30.360	79.087	5603.285	6493.786
1281.287	826.361	208.023	38.730	125.351	9312.947	11938.149
1374.586	875.258	185.810	37.653	143.834	14740.093	18617.680
1440.884	826.396	158.663	21.351	306.166	8315.190	8927.958
841.857	417.695	167.043	55.786	134.918	6972.952	12401.211
969.321	589.614	204.711	26.301	183.355	5568.467	6211.467
922.295	624.127	214.236	19.069	213.555	3993.520	4225.376
439.167	334.851	194.927	61.755	136.917	4859.840	10269.284
498.062	340.561	168.064	56.254	168.976	10635.930	19146.158
541.854	240.190	71.997	28.024	210.847	10940.552	12393.666
255.225	1063.231	105.441	13.911	28.981	6834.436	7040.955
194.153	1020.257	131.390	25.434	39.829	7622.198	8440.215
138.732	1125.571	71.643	30.205	314.517	7922.816	9167.478
119.199	1054.031	107.386	42.789	333.471	7523.086	10251.394
255.239	1138.768	79.322	26.099	7.392	6298.775	7013.954
213.700	1167.335	69.530	24.962	14.709	5018.920	5536.057
1468.193	570.432	211.085	9.854	36.329	4108.115	4169.634
1368.142	546.812	210.340	9.004	324.844	11071.596	11209.730
1322.347	612.723	196.545	10.278	326.810	15831.638	16089.822
1926.020	1019.389	166.624	37.545	359.629	5956.470	7512.502
1968.092	968.539	167.861	39.720	76.532	8927.207	11606.192
2031.765	1041.123	218.275	68.998	236.637	4754.893	13266.811
2036.900	975.564	169.264	53.159	251.175	5883.171	9811.942
1964.849	1080.925	180.893	66.204	192.156	2598.162	6439.451
469.454	1111.319	158.017	11.878	233.166	6715.882	6862.827
1012.305	1172.874	317.907	27.734	21.852	7181.234	8113.337
1014.005	1079.000	331.173	10.402	129.062	9492.331	9650.951
953.686	1046.010	315.771	33.104	248.110	6582.048	7857.431
1723.378	192.381	297.132	30.567	26.574	3931.461	4565.950
1721.959	245.510	277.823	14.182	22.116	4701.259	4849.036
1771.517	711.307	229.904	6.714	354.100	6191.215	6233.971
829.295	708.209	249.368	48.671	199.004	8410.779	12736.195
779.779	768.095	252.594	49.438	256.522	8342.013	12828.589
716.781	737.862	228.872	41.322	102.678	6504.560	8661.054
1811.945	1155.592	101.366	22.670	299.038	7694.062	8338.265
1744.153	1156.007	89.371	14.505	359.086	8515.015	8795.363
1761.659	1034.482	134.781	25.463	36.936	7444.773	8245.730
1705.599	1093.468	120.114	33.512	21.135	7335.887	8798.473
1856.080	1100.651	120.759	8.975	263.503	4498.476	4554.235
1844.348	1042.081	123.432	12.296	317.149	5055.142	5173.820
1363.698	1231.564	140.872	20.375	319.346	7192.428	7672.486
1434.272	1217.592	131.806	31.942	122.768	6626.833	7809.315
1420.632	1146.316	139.019	28.878	52.673	7068.976	8072.833
1352.627	1106.681	207.184	50.829	58.779	6237.388	9874.910
1309.148	1160.000	191.209	49.709	18.263	6240.232	9649.879
531.085	742.673	236.708	42.703	50.089	4064.492	5530.829
575.277	779.037	204.890	21.811	14.432	6407.866	6901.955
603.038	646.587	268.911	26.849	325.586	7253.839	8130.283
620.871	735.067	229.704	33.537	335.964	5595.066	6712.497
1031.763	630.039	215.944	22.840	148.234	5524.407	5994.400
1211.803	240.477	185.306	47.900	323.884	3415.358	5094.351
1175.670	269.872	163.134	15.442	24.716	4983.361	5169.992
388.712	773.703	255.492	38.594	19.829	6170.059	7894.236
454.861	739.544	264.422	38.593	16.698	3656.109	4677.746
1243.621	1143.813	253.086	54.962	36.710	9754.391	16990.077
678.792	780.814	226.797	36.802	316.951	6845.396	8549.196
670.705	854.846	211.706	24.233	222.586	5436.585	5961.911
1033.175	238.459	124.752	40.410	227.787	22822.103	29973.033
1106.528	292.862	177.164	28.976	56.079	5534.637	6326.601
936.418	282.004	82.469	42.400	236.174	15709.238	21273.143
1094.959	382.409	168.083	18.709	81.650	8589.322	9068.504
1960.804	873.283	180.726	38.237	92.327	10049.971	12795.090
1859.956	796.459	192.630	28.436	30.280	8905.344	10127.182
1884.741	857.124	195.582	30.375	211.327	9698.683	11241.780
308.821	1036.224	103.463	14.974	41.292	4649.978	4813.433
361.283	1089.338	115.347	27.868	259.631	7232.247	8181.028
1321.251	1047.148	241.463	53.020	127.057	4681.510	7782.530
1210.754	1077.429	325.195	19.956	88.138	5222.932	5556.574
1244.905	1034.082	297.598	42.285	137.853	3652.662	4937.300
1132.315	852.189	272.021	42.427	60.770	4040.022	5473.293
1177.434	819.171	246.224	45.677	67.596	4559.263	6525.318
1150.750	969.662	269.766	43.430	213.591	5820.892	8015.382
1207.178	973.943	272.061	44.892	147.455	6161.620	8697.541
1120.597	1047.757	305.060	41.052	228.245	6370.476	8447.680
1142.874	1095.385	334.952	11.913	243.642	3663.950	3744.597
471.990	847.025	199.890	21.299	42.500	4670.653	5013.059
419.249	872.762	204.947	19.493	35.909	4519.385	4794.175
490.686	775.836	231.416	35.883	10.704	4507.117	5562.885
371.795	835.731	227.542	22.288	38.183	7070.983	7641.927
1774.437	257.042	301.645	57.739	272.922	2542.382	4762.989
1662.442	910.186	165.982	5.738	286.009	10021.355	10071.815
1591.014	932.353	160.451	3.194	292.350	14455.278	14477.770
1669.732	801.571	188.092	27.892	336.258	5748.797	6504.428
1617.744	761.437	187.524	30.322	308.192	5826.217	6749.511
1547.146	776.390	171.370	5.092	80.068	5716.956	5739.606
1527.707	838.691	166.407	8.257	15.500	10900.180	11014.356
351.951	1268.360	173.394	75.306	167.228	5354.353	21109.073
1736.069	960.334	155.574	12.884	57.612	16231.065	16650.283
1784.767	900.923	160.319	24.112	344.801	4188.061	4588.416
1777.670	823.769	191.401	22.460	344.459	5185.817	5611.474
1736.263	774.564	208.766	23.964	350.975	9061.656	9916.469
1844.360	926.489	181.106	54.800	306.126	3988.273	6918.873
1102.141	1329.796	236.730	9.825	246.634	4819.162	4890.889
1188.573	1365.333	212.428	37.335	72.148	3852.439	4845.180
1135.534	1379.204	231.230	19.386	28.306	4450.272	4717.758
993.699	55.219	146.158	57.325	358.943	135103.562	250252.689
1563.168	90.919	195.082	54.944	197.214	49674.916	86484.094
1277.053	158.697	168.582	56.558	196.271	26075.418	47315.392
329.440	965.641	143.102	44.764	358.887	4399.628	6196.577
387.373	941.976	165.485	45.197	3.623	4225.091	5995.801
1234.433	933.762	246.728	24.576	274.456	3619.608	3980.162
1219.476	859.560	234.651	23.605	250.399	5762.535	6288.740
1343.360	943.115	225.153	23.665	89.782	9805.243	10705.464
1961.829	1121.071	167.835	69.319	309.791	4274.806	12104.129
1917.042	1134.595	116.860	14.715	69.042	4445.676	4596.431
1986.249	1204.155	142.609	77.643	273.387	2469.988	11541.987
1878.352	993.498	165.013	54.868	305.012	3867.663	6721.010
415.355	981.167	144.088	33.096	314.818	5114.069	6104.477
326.055	337.724	172.004	38.654	227.335	6874.306	8802.637
385.042	382.484	239.566	45.376	226.541	8434.165	12006.850
2108.023	1000.992	235.739	23.643	89.381	8537.281	9319.536
1902.075	313.325	296.231	39.108	120.144	10151.949	13083.073
1057.851	1027.801	300.261	40.264	122.641	7490.223	9815.809
1058.514	943.181	291.401	36.553	60.020	5699.092	7094.585
1118.969	915.775	257.652	41.707	66.660	4789.995	6416.070
1392.452	996.363	194.350	29.136	66.251	14556.380	16664.993
409.884	1057.945	133.590	23.059	246.961	6603.006	7176.399
786.174	1327.728	320.481	40.904	203.014	6809.859	9010.053
821.020	1370.132	334.633	32.574	81.587	5337.999	6334.414
618.869	221.832	73.340	24.812	178.167	11260.435	12405.625
1231.495	1406.060	175.887	33.070	76.582	4986.205	5950.093
1284.287	1450.572	140.670	46.604	131.519	1001.768	1458.100
218.693	808.164	265.932	24.383	18.666	6380.187	7005.001
1572.654	1143.466	124.042	18.383	294.488	5968.844	6289.826
1517.821	1104.106	140.696	30.201	8.788	15285.620	17686.217
1560.247	1220.646	99.704	29.451	327.592	3665.541	4209.499
1519.055	1252.561	109.145	28.179	140.988	7672.252	8703.826
1696.522	1290.908	73.933	10.902	54.866	8039.036	8186.800
1684.953	1223.833	81.984	9.450	62.552	8105.070	8216.585
1768.087	1313.552	65.243	3.072	29.431	7126.626	7136.879
1047.505	1219.148	278.983	40.530	34.657	6323.277	8319.356
1633.123	1131.920	122.711	37.033	41.233	5705.544	7147.222
1620.716	1209.101	98.373	21.848	63.737	5017.063	5405.306
722.228	1343.667	342.105	51.920	141.094	4579.410	7424.975
1644.198	1396.029	67.298	2.244	150.332	5970.157	5974.740
677.148	1378.100	390.794	24.481	132.568	4315.325	4741.582
735.836	1403.208	368.657	75.044	0.900	584.090	2263.245
615.678	1347.890	395.980	27.546	158.308	3311.985	3735.446
1136.954	1440.747	200.800	51.140	13.473	8772.313	13981.483
1521.018	1013.685	161.749	3.932	161.561	17353.811	17394.757
2065.527	1123.878	173.130	65.446	49.886	17401.471	41875.034
						
Total plan area (mm^2)	2832480.351					
Total 3D area (mm^2)	3706252.751					
						
Slope bitmap	Double click to view	Darkest: 0 degree slope	Brightest: 90 degree slope			
Slope direction bitmap	Double click to view	0 deg = red, 120 deg = green, 240 deg = blue				
Surface bitmap	Double click to view	Darkest: z = 0.000 (mm)	Lightest: z = 419.411 (mm)			
